OOIBase32 Version 1.0.0.8 Data File
++++++++++++++++++++++++++++++++++++
Date: Wednesday, January 16, 1980, 02:36:33
User: Valued Ocean Optics Customer
Spectrometer Serial Number: Unknown
Spectrometer Channel: Master
Integration Time (msec): 3
Spectra Averaged: 10
Boxcar Smoothing: 0
Correct for Electrical Dark: Disabled
Time Normalized: Disabled
Dual-beam Reference: Disabled
Reference Channel: Master
>>>>>Begin Spectral Data<<<<<
179.00	0.0000
179.38	0.0000
179.75	70.5000
180.13	71.1000
180.51	72.3000
180.88	72.6000
181.26	71.5000
181.64	71.7000
182.02	72.6000
182.39	70.8000
182.77	71.0000
183.15	70.6000
183.52	70.5000
183.90	71.1000
184.28	71.9000
184.65	70.3000
185.03	71.3000
185.41	71.1000
185.78	70.6000
186.16	70.5000
186.53	70.6000
186.91	70.2000
187.29	71.8000
187.66	72.3000
188.04	73.5000
188.42	73.1000
188.79	71.4000
189.17	71.5000
189.55	72.4000
189.92	71.6000
190.30	73.1000
190.67	72.0000
191.05	72.2000
191.43	72.4000
191.80	72.2000
192.18	72.2000
192.56	71.5000
192.93	71.5000
193.31	71.2000
193.68	72.4000
194.06	73.0000
194.44	73.1000
194.81	72.8000
195.19	71.7000
195.56	73.0000
195.94	72.2000
196.32	72.8000
196.69	70.3000
197.07	71.2000
197.44	73.8000
197.82	72.9000
198.19	72.9000
198.57	73.2000
198.95	72.6000
199.32	74.3000
199.70	70.3000
200.07	70.5000
200.45	71.1000
200.82	72.9000
201.20	73.3000
201.57	71.1000
201.95	72.3000
202.33	73.1000
202.70	72.6000
203.08	73.9000
203.45	72.3000
203.83	71.4000
204.20	72.1000
204.58	72.9000
204.95	74.0000
205.33	73.2000
205.70	73.4000
206.08	72.8000
206.45	72.1000
206.83	73.0000
207.20	73.7000
207.58	73.1000
207.95	73.0000
208.33	72.2000
208.70	73.0000
209.08	74.4000
209.45	72.5000
209.83	74.5000
210.20	71.4000
210.58	73.5000
210.95	73.4000
211.33	71.5000
211.70	73.0000
212.08	73.6000
212.45	71.4000
212.83	72.2000
213.20	74.7000
213.58	72.1000
213.95	73.4000
214.33	71.5000
214.70	73.1000
215.07	73.1000
215.45	74.2000
215.82	72.9000
216.20	72.0000
216.57	73.2000
216.95	73.0000
217.32	71.8000
217.70	73.9000
218.07	73.1000
218.44	74.0000
218.82	73.8000
219.19	74.4000
219.57	73.4000
219.94	72.9000
220.32	74.1000
220.69	73.0000
221.06	73.3000
221.44	73.4000
221.81	72.6000
222.19	73.1000
222.56	73.1000
222.93	74.0000
223.31	72.5000
223.68	73.4000
224.06	73.3000
224.43	72.0000
224.80	73.2000
225.18	75.1000
225.55	73.8000
225.92	74.4000
226.30	71.9000
226.67	73.9000
227.05	73.2000
227.42	74.6000
227.79	71.8000
228.17	72.6000
228.54	73.1000
228.91	72.8000
229.29	72.7000
229.66	73.8000
230.03	74.1000
230.41	74.8000
230.78	72.0000
231.15	72.5000
231.53	72.2000
231.90	72.8000
232.27	73.1000
232.65	73.2000
233.02	74.1000
233.39	74.8000
233.77	73.5000
234.14	71.9000
234.51	73.0000
234.89	72.7000
235.26	72.8000
235.63	75.2000
236.01	73.9000
236.38	74.3000
236.75	72.7000
237.12	75.1000
237.50	73.3000
237.87	71.8000
238.24	72.8000
238.62	73.2000
238.99	73.8000
239.36	74.1000
239.73	74.2000
240.11	73.4000
240.48	72.3000
240.85	73.8000
241.23	74.5000
241.60	72.6000
241.97	73.0000
242.34	72.9000
242.72	73.5000
243.09	73.8000
243.46	73.1000
243.83	74.4000
244.21	72.8000
244.58	73.6000
244.95	71.3000
245.32	72.3000
245.70	73.3000
246.07	74.5000
246.44	72.0000
246.81	71.8000
247.18	72.7000
247.56	73.3000
247.93	72.9000
248.30	72.2000
248.67	72.7000
249.04	73.6000
249.42	72.9000
249.79	73.8000
250.16	72.2000
250.53	72.7000
250.90	72.6000
251.28	73.9000
251.65	72.9000
252.02	71.2000
252.39	73.4000
252.76	73.0000
253.14	73.5000
253.51	72.7000
253.88	74.2000
254.25	73.8000
254.62	72.9000
254.99	73.7000
255.37	73.4000
255.74	72.6000
256.11	74.0000
256.48	73.0000
256.85	73.7000
257.22	73.9000
257.59	73.2000
257.97	73.8000
258.34	73.0000
258.71	73.0000
259.08	73.7000
259.45	73.7000
259.82	74.7000
260.19	74.5000
260.56	74.5000
260.94	75.0000
261.31	75.0000
261.68	76.0000
262.05	74.5000
262.42	75.2000
262.79	75.8000
263.16	75.8000
263.53	77.6000
263.90	75.4000
264.28	77.9000
264.65	78.0000
265.02	76.8000
265.39	78.3000
265.76	78.1000
266.13	78.3000
266.50	79.5000
266.87	76.9000
267.24	78.7000
267.61	80.0000
267.98	80.6000
268.35	80.6000
268.72	80.3000
269.09	80.5000
269.46	80.2000
269.84	81.4000
270.21	82.1000
270.58	81.4000
270.95	82.6000
271.32	82.0000
271.69	81.4000
272.06	82.0000
272.43	82.0000
272.80	81.4000
273.17	82.4000
273.54	83.3000
273.91	82.6000
274.28	83.3000
274.65	83.0000
275.02	83.3000
275.39	82.5000
275.76	82.8000
276.13	84.5000
276.50	83.0000
276.87	82.3000
277.24	86.1000
277.61	85.2000
277.98	84.0000
278.35	84.5000
278.72	84.3000
279.09	83.4000
279.46	85.2000
279.83	84.8000
280.20	83.9000
280.57	86.9000
280.94	86.0000
281.31	85.9000
281.67	87.3000
282.04	86.8000
282.41	85.9000
282.78	85.5000
283.15	87.2000
283.52	87.3000
283.89	90.9000
284.26	87.8000
284.63	88.3000
285.00	89.1000
285.37	89.3000
285.74	89.9000
286.11	89.4000
286.48	90.7000
286.85	90.9000
287.21	89.0000
287.58	90.8000
287.95	91.2000
288.32	92.7000
288.69	90.6000
289.06	90.5000
289.43	90.9000
289.80	92.3000
290.17	91.6000
290.54	91.6000
290.90	92.6000
291.27	95.1000
291.64	94.2000
292.01	92.4000
292.38	93.3000
292.75	92.9000
293.12	92.8000
293.48	94.8000
293.85	93.8000
294.22	93.9000
294.59	95.0000
294.96	95.4000
295.33	94.9000
295.70	97.2000
296.06	94.9000
296.43	95.0000
296.80	94.1000
297.17	95.2000
297.54	96.9000
297.91	95.5000
298.27	97.4000
298.64	99.3000
299.01	99.3000
299.38	98.1000
299.75	98.1000
300.11	100.0000
300.48	97.0000
300.85	99.0000
301.22	98.7000
301.59	98.8000
301.95	100.1000
302.32	98.7000
302.69	99.8000
303.06	98.2000
303.43	99.3000
303.79	99.8000
304.16	101.2000
304.53	100.5000
304.90	102.8000
305.26	102.0000
305.63	100.8000
306.00	100.0000
306.37	102.3000
306.73	100.8000
307.10	103.5000
307.47	104.8000
307.84	104.2000
308.20	104.8000
308.57	107.0000
308.94	105.1000
309.31	104.8000
309.67	104.0000
310.04	104.8000
310.41	103.9000
310.77	105.1000
311.14	104.7000
311.51	104.6000
311.88	107.3000
312.24	105.6000
312.61	105.1000
312.98	104.8000
313.34	107.2000
313.71	107.7000
314.08	108.0000
314.44	107.2000
314.81	108.4000
315.18	108.2000
315.55	108.0000
315.91	108.8000
316.28	107.9000
316.65	108.3000
317.01	109.5000
317.38	109.4000
317.75	108.8000
318.11	111.3000
318.48	110.7000
318.84	111.0000
319.21	111.1000
319.58	111.3000
319.94	110.3000
320.31	111.5000
320.68	112.0000
321.04	112.9000
321.41	114.2000
321.78	112.3000
322.14	113.7000
322.51	114.3000
322.87	114.3000
323.24	114.2000
323.61	115.4000
323.97	114.4000
324.34	114.7000
324.70	115.9000
325.07	116.2000
325.44	114.9000
325.80	116.3000
326.17	118.0000
326.53	117.3000
326.90	116.5000
327.27	118.4000
327.63	118.0000
328.00	119.3000
328.36	121.8000
328.73	120.8000
329.09	118.8000
329.46	120.3000
329.83	120.8000
330.19	120.3000
330.56	121.6000
330.92	122.5000
331.29	120.5000
331.65	122.6000
332.02	122.8000
332.38	123.5000
332.75	122.0000
333.11	122.5000
333.48	124.7000
333.84	124.4000
334.21	126.3000
334.58	125.2000
334.94	122.7000
335.31	124.7000
335.67	125.1000
336.04	126.1000
336.40	127.1000
336.77	124.2000
337.13	125.4000
337.50	125.3000
337.86	128.1000
338.22	129.7000
338.59	128.5000
338.95	127.5000
339.32	131.2000
339.68	131.4000
340.05	130.1000
340.41	129.0000
340.78	128.4000
341.14	132.3000
341.51	131.2000
341.87	133.1000
342.24	134.3000
342.60	136.3000
342.96	135.0000
343.33	136.8000
343.69	136.0000
344.06	139.2000
344.42	138.4000
344.79	137.8000
345.15	141.3000
345.51	140.8000
345.88	142.2000
346.24	143.6000
346.61	143.4000
346.97	145.9000
347.34	144.3000
347.70	145.2000
348.06	147.4000
348.43	150.9000
348.79	149.4000
349.16	150.7000
349.52	150.1000
349.88	150.8000
350.25	154.8000
350.61	150.9000
350.97	152.0000
351.34	153.6000
351.70	156.1000
352.07	154.5000
352.43	154.5000
352.79	155.8000
353.16	160.5000
353.52	159.7000
353.88	159.7000
354.25	159.3000
354.61	161.3000
354.97	160.9000
355.34	161.8000
355.70	163.0000
356.06	162.2000
356.43	166.3000
356.79	165.0000
357.15	168.7000
357.52	165.5000
357.88	168.0000
358.24	169.1000
358.60	169.9000
358.97	174.5000
359.33	175.2000
359.69	171.4000
360.06	177.2000
360.42	177.9000
360.78	181.3000
361.14	180.5000
361.51	179.1000
361.87	185.6000
362.23	186.4000
362.60	188.7000
362.96	189.7000
363.32	189.1000
363.68	192.8000
364.05	193.7000
364.41	193.2000
364.77	196.7000
365.13	197.0000
365.50	200.4000
365.86	205.7000
366.22	207.4000
366.58	204.9000
366.95	208.5000
367.31	205.3000
367.67	213.5000
368.03	208.3000
368.39	216.5000
368.76	217.0000
369.12	209.6000
369.48	214.9000
369.84	217.0000
370.20	224.5000
370.57	219.2000
370.93	223.6000
371.29	218.2000
371.65	225.4000
372.01	225.6000
372.38	223.9000
372.74	228.2000
373.10	222.1000
373.46	230.2000
373.82	232.2000
374.18	228.1000
374.55	229.5000
374.91	235.2000
375.27	242.9000
375.63	238.1000
375.99	236.2000
376.35	240.3000
376.71	237.9000
377.08	242.2000
377.44	247.7000
377.80	259.8000
378.16	256.4000
378.52	261.7000
378.88	265.6000
379.24	262.3000
379.60	271.1000
379.97	279.2000
380.33	278.0000
380.69	270.8000
381.05	272.6000
381.41	286.2000
381.77	280.1000
382.13	283.4000
382.49	283.0000
382.85	276.6000
383.21	289.8000
383.57	270.8000
383.94	298.6000
384.30	294.7000
384.66	291.9000
385.02	278.2000
385.38	290.0000
385.74	287.6000
386.10	295.3000
386.46	310.7000
386.82	302.5000
387.18	315.0000
387.54	311.6000
387.90	302.1000
388.26	316.0000
388.62	315.0000
388.98	301.4000
389.34	307.2000
389.70	309.6000
390.06	285.5000
390.42	290.7000
390.78	324.0000
391.14	345.2000
391.50	329.2000
391.86	348.6000
392.22	361.9000
392.58	347.1000
392.94	308.2000
393.30	321.6000
393.66	331.0000
394.02	338.1000
394.38	297.6000
394.74	320.4000
395.10	321.7000
395.46	331.6000
395.82	338.3000
396.18	324.8000
396.54	360.0000
396.90	372.6000
397.26	360.0000
397.62	353.0000
397.98	388.9000
398.34	339.0000
398.70	345.9000
399.05	315.4000
399.41	320.6000
399.77	331.0000
400.13	344.4000
400.49	354.3000
400.85	350.9000
401.21	327.9000
401.57	364.9000
401.93	337.3000
402.29	333.6000
402.65	343.5000
403.00	356.6000
403.36	359.9000
403.72	352.0000
404.08	397.6000
404.44	362.4000
404.80	369.3000
405.16	372.5000
405.52	370.0000
405.87	380.6000
406.23	375.4000
406.59	331.3000
406.95	352.7000
407.31	363.5000
407.67	364.9000
408.03	366.1000
408.38	375.7000
408.74	400.0000
409.10	404.2000
409.46	368.8000
409.82	380.3000
410.17	371.0000
410.53	357.9000
410.89	373.9000
411.25	337.6000
411.61	359.3000
411.97	385.5000
412.32	386.0000
412.68	396.5000
413.04	366.0000
413.40	333.0000
413.75	356.1000
414.11	351.7000
414.47	348.2000
414.83	398.8000
415.19	366.0000
415.54	340.4000
415.90	383.9000
416.26	371.9000
416.62	379.7000
416.97	341.1000
417.33	385.8000
417.69	383.7000
418.05	375.3000
418.40	353.8000
418.76	353.3000
419.12	393.5000
419.48	402.8000
419.83	431.5000
420.19	387.6000
420.55	398.9000
420.90	455.2000
421.26	426.3000
421.62	385.4000
421.98	420.2000
422.33	441.3000
422.69	453.6000
423.05	433.2000
423.40	374.6000
423.76	365.9000
424.12	411.6000
424.47	406.7000
424.83	380.3000
425.19	381.1000
425.54	386.7000
425.90	416.9000
426.26	424.1000
426.61	444.1000
426.97	349.7000
427.33	412.5000
427.68	407.1000
428.04	459.2000
428.40	468.3000
428.75	493.5000
429.11	434.6000
429.47	500.6000
429.82	488.9000
430.18	450.9000
430.53	432.6000
430.89	432.6000
431.25	413.2000
431.60	429.2000
431.96	411.5000
432.31	411.7000
432.67	455.1000
433.03	480.1000
433.38	435.0000
433.74	446.4000
434.09	440.9000
434.45	432.8000
434.81	410.4000
435.16	447.8000
435.52	412.0000
435.87	403.3000
436.23	402.7000
436.58	400.7000
436.94	427.6000
437.30	451.7000
437.65	456.0000
438.01	458.4000
438.36	426.7000
438.72	414.9000
439.07	401.0000
439.43	421.6000
439.78	461.7000
440.14	505.0000
440.49	450.1000
440.85	460.5000
441.20	481.9000
441.56	458.6000
441.91	498.2000
442.27	451.5000
442.62	461.7000
442.98	481.8000
443.33	462.0000
443.69	473.5000
444.04	452.5000
444.40	424.8000
444.75	475.4000
445.11	505.6000
445.46	510.1000
445.82	497.8000
446.17	461.7000
446.53	481.0000
446.88	532.8000
447.23	443.6000
447.59	444.2000
447.94	443.9000
448.30	459.1000
448.65	448.5000
449.01	482.7000
449.36	476.8000
449.72	501.0000
450.07	519.2000
450.42	486.8000
450.78	459.6000
451.13	492.3000
451.49	462.9000
451.84	457.1000
452.19	434.4000
452.55	448.2000
452.90	461.1000
453.26	506.3000
453.61	514.2000
453.96	426.8000
454.32	485.9000
454.67	469.7000
455.02	422.4000
455.38	450.8000
455.73	451.1000
456.09	502.9000
456.44	505.0000
456.79	500.2000
457.15	480.0000
457.50	475.7000
457.85	476.2000
458.21	489.6000
458.56	485.0000
458.91	476.3000
459.27	444.5000
459.62	468.4000
459.97	478.0000
460.32	485.3000
460.68	456.7000
461.03	433.6000
461.38	449.4000
461.74	496.0000
462.09	478.2000
462.44	461.9000
462.80	482.8000
463.15	484.7000
463.50	478.4000
463.85	504.1000
464.21	515.4000
464.56	542.8000
464.91	480.3000
465.26	485.3000
465.62	492.7000
465.97	514.1000
466.32	499.1000
466.67	499.0000
467.03	485.0000
467.38	492.1000
467.73	488.1000
468.08	502.6000
468.44	506.7000
468.79	484.0000
469.14	466.4000
469.49	483.0000
469.85	492.9000
470.20	531.7000
470.55	535.4000
470.90	532.6000
471.25	494.3000
471.61	525.4000
471.96	527.9000
472.31	562.0000
472.66	560.6000
473.01	572.3000
473.36	578.4000
473.72	588.2000
474.07	600.2000
474.42	601.1000
474.77	610.8000
475.12	615.9000
475.47	622.1000
475.83	625.4000
476.18	611.8000
476.53	611.2000
476.88	646.9000
477.23	641.7000
477.58	636.7000
477.93	640.6000
478.28	641.7000
478.64	661.2000
478.99	676.6000
479.34	683.6000
479.69	698.6000
480.04	702.2000
480.39	704.0000
480.74	692.7000
481.09	733.2000
481.44	728.6000
481.79	715.8000
482.15	723.3000
482.50	734.7000
482.85	741.3000
483.20	777.9000
483.55	789.1000
483.90	825.1000
484.25	974.8000
484.60	1095.1000
484.95	1189.8000
485.30	1134.5000
485.65	1013.3000
486.00	956.4000
486.35	864.8000
486.70	823.8000
487.05	824.5000
487.40	813.6000
487.75	808.4000
488.10	806.5000
488.45	801.4000
488.80	793.5000
489.15	817.0000
489.50	809.6000
489.85	814.6000
490.20	813.2000
490.55	820.8000
490.90	820.8000
491.25	820.9000
491.60	811.9000
491.95	809.0000
492.30	824.3000
492.65	828.8000
493.00	826.5000
493.35	820.1000
493.70	826.3000
494.05	818.6000
494.40	834.3000
494.75	853.5000
495.10	859.8000
495.45	865.4000
495.80	865.2000
496.15	846.6000
496.50	830.1000
496.84	831.8000
497.19	830.8000
497.54	845.6000
497.89	850.0000
498.24	855.8000
498.59	858.8000
498.94	847.1000
499.29	841.0000
499.64	846.8000
499.99	860.3000
500.33	865.8000
500.68	869.4000
501.03	869.6000
501.38	870.9000
501.73	879.1000
502.08	872.7000
502.43	881.2000
502.77	873.1000
503.12	868.3000
503.47	859.8000
503.82	865.3000
504.17	867.8000
504.52	875.9000
504.86	874.8000
505.21	883.7000
505.56	875.2000
505.91	870.1000
506.26	865.3000
506.61	877.0000
506.95	880.5000
507.30	878.5000
507.65	884.3000
508.00	875.0000
508.35	879.9000
508.69	880.2000
509.04	886.0000
509.39	878.6000
509.74	887.3000
510.08	887.4000
510.43	900.0000
510.78	894.7000
511.13	898.4000
511.47	904.2000
511.82	903.7000
512.17	892.1000
512.52	895.4000
512.86	901.1000
513.21	893.9000
513.56	884.1000
513.91	892.1000
514.25	888.1000
514.60	888.6000
514.95	889.0000
515.30	897.2000
515.64	895.9000
515.99	902.9000
516.34	898.4000
516.68	897.5000
517.03	897.4000
517.38	899.9000
517.72	921.5000
518.07	917.1000
518.42	917.8000
518.76	917.4000
519.11	916.7000
519.46	911.9000
519.80	906.2000
520.15	908.5000
520.50	915.2000
520.84	911.0000
521.19	915.1000
521.54	921.5000
521.88	904.2000
522.23	919.4000
522.58	916.6000
522.92	921.4000
523.27	933.5000
523.61	931.4000
523.96	926.7000
524.31	939.8000
524.65	939.1000
525.00	937.5000
525.34	919.9000
525.69	927.3000
526.04	937.0000
526.38	937.7000
526.73	932.5000
527.07	944.1000
527.42	937.9000
527.76	952.7000
528.11	954.6000
528.46	942.7000
528.80	945.7000
529.15	938.0000
529.49	936.1000
529.84	941.1000
530.18	943.7000
530.53	956.7000
530.87	949.0000
531.22	944.2000
531.56	955.2000
531.91	968.4000
532.25	970.1000
532.60	974.2000
532.94	974.4000
533.29	968.3000
533.63	959.9000
533.98	957.4000
534.32	965.0000
534.67	973.3000
535.01	966.1000
535.36	946.3000
535.70	955.4000
536.05	954.5000
536.39	969.5000
536.74	964.7000
537.08	965.0000
537.43	968.0000
537.77	981.8000
538.12	984.9000
538.46	991.0000
538.80	991.2000
539.15	975.1000
539.49	988.0000
539.84	998.1000
540.18	989.0000
540.53	984.5000
540.87	988.8000
541.21	995.2000
541.56	985.3000
541.90	987.2000
542.25	989.4000
542.59	981.6000
542.93	998.8000
543.28	994.2000
543.62	1000.4000
543.97	1002.2000
544.31	1002.7000
544.65	987.9000
545.00	991.9000
545.34	998.5000
545.68	993.8000
546.03	986.8000
546.37	1022.8000
546.71	1031.0000
547.06	1038.8000
547.40	1030.0000
547.74	1034.4000
548.09	1018.5000
548.43	1007.2000
548.77	997.5000
549.12	994.5000
549.46	982.4000
549.80	991.5000
550.15	994.6000
550.49	997.5000
550.83	1011.6000
551.17	1024.4000
551.52	1023.9000
551.86	1021.4000
552.20	1019.7000
552.55	1029.9000
552.89	1021.6000
553.23	1006.6000
553.57	1011.6000
553.92	1007.7000
554.26	1028.7000
554.60	1027.9000
554.94	1032.4000
555.29	1032.9000
555.63	1033.2000
555.97	1031.1000
556.31	1034.4000
556.66	1034.6000
557.00	1023.9000
557.34	1025.4000
557.68	1032.5000
558.02	1032.4000
558.37	1042.3000
558.71	1043.7000
559.05	1051.6000
559.39	1076.3000
559.73	1089.7000
560.08	1080.5000
560.42	1088.7000
560.76	1072.2000
561.10	1068.8000
561.44	1057.0000
561.78	1070.7000
562.13	1075.6000
562.47	1071.2000
562.81	1080.1000
563.15	1078.5000
563.49	1075.4000
563.83	1074.4000
564.17	1071.6000
564.52	1065.8000
564.86	1059.5000
565.20	1057.5000
565.54	1064.6000
565.88	1080.1000
566.22	1084.2000
566.56	1092.3000
566.90	1109.8000
567.24	1133.8000
567.59	1146.4000
567.93	1173.1000
568.27	1195.8000
568.61	1226.9000
568.95	1231.9000
569.29	1242.5000
569.63	1279.7000
569.97	1294.6000
570.31	1310.4000
570.65	1333.1000
570.99	1333.3000
571.33	1325.0000
571.67	1309.8000
572.01	1342.7000
572.35	1379.5000
572.69	1402.8000
573.03	1411.3000
573.37	1440.9000
573.71	1442.0000
574.05	1416.2000
574.39	1390.5000
574.73	1387.4000
575.07	1376.6000
575.41	1391.1000
575.75	1393.9000
576.09	1444.0000
576.43	1506.6000
576.77	1547.8000
577.11	1545.7000
577.45	1500.4000
577.79	1450.2000
578.13	1449.4000
578.47	1419.0000
578.81	1425.8000
579.15	1411.1000
579.49	1427.9000
579.83	1522.2000
580.17	1620.1000
580.51	1688.1000
580.85	1705.4000
581.19	1616.5000
581.53	1535.1000
581.87	1447.9000
582.20	1366.0000
582.54	1327.4000
582.88	1316.9000
583.22	1346.9000
583.56	1387.2000
583.90	1450.6000
584.24	1485.1000
584.58	1467.6000
584.92	1426.8000
585.25	1389.0000
585.59	1360.7000
585.93	1374.8000
586.27	1401.8000
586.61	1384.3000
586.95	1397.4000
587.29	1375.7000
587.62	1335.2000
587.96	1309.0000
588.30	1280.8000
588.64	1253.4000
588.98	1252.7000
589.31	1239.7000
589.65	1215.1000
589.99	1200.2000
590.33	1203.4000
590.67	1194.4000
591.01	1219.3000
591.34	1276.5000
591.68	1331.7000
592.02	1380.4000
592.36	1369.9000
592.69	1339.4000
593.03	1316.8000
593.37	1301.8000
593.71	1299.9000
594.04	1316.9000
594.38	1300.8000
594.72	1292.0000
595.06	1249.5000
595.39	1232.9000
