OOIBase32 Version 1.0.0.8 Data File
++++++++++++++++++++++++++++++++++++
Date: Monday, January 21, 1980, 02:22:26
User: Valued Ocean Optics Customer
Spectrometer Serial Number: Unknown
Spectrometer Channel: Master
Integration Time (msec): 7
Spectra Averaged: 20
Boxcar Smoothing: 0
Correct for Electrical Dark: Disabled
Time Normalized: Disabled
Dual-beam Reference: Disabled
Reference Channel: Master
>>>>>Begin Spectral Data<<<<<
179.00	0.0000
179.38	0.0000
179.75	71.5500
180.13	72.5000
180.51	73.1500
180.88	73.4500
181.26	74.7000
181.64	73.6000
182.02	73.9500
182.39	74.0000
182.77	72.4000
183.15	72.7500
183.52	72.2500
183.90	74.4500
184.28	72.5000
184.65	73.5000
185.03	72.2000
185.41	73.3000
185.78	73.5500
186.16	73.4500
186.53	73.5500
186.91	72.9000
187.29	72.7000
187.66	73.2500
188.04	73.6500
188.42	76.2500
188.79	76.2500
189.17	76.3500
189.55	75.6000
189.92	75.7500
190.30	74.9000
190.67	75.1500
191.05	76.3000
191.43	75.1000
191.80	75.8000
192.18	75.0500
192.56	75.8500
192.93	76.2000
193.31	75.3500
193.68	75.4500
194.06	76.3000
194.44	76.2000
194.81	76.4500
195.19	76.3500
195.56	76.4500
195.94	76.3500
196.32	75.5000
196.69	76.7500
197.07	75.8500
197.44	75.9000
197.82	77.1000
198.19	76.3500
198.57	75.8000
198.95	76.0500
199.32	75.3000
199.70	76.1000
200.07	76.3000
200.45	75.7000
200.82	76.8000
201.20	75.1000
201.57	76.2000
201.95	75.4000
202.33	76.8500
202.70	77.2500
203.08	76.3500
203.45	76.6000
203.83	75.9500
204.20	76.6500
204.58	76.3500
204.95	76.0000
205.33	76.6000
205.70	77.0000
206.08	76.4000
206.45	76.6000
206.83	75.8500
207.20	76.2500
207.58	75.7500
207.95	75.7000
208.33	76.0000
208.70	76.3500
209.08	76.4000
209.45	76.6000
209.83	76.0500
210.20	76.7000
210.58	77.1500
210.95	77.5000
211.33	77.7000
211.70	76.4500
212.08	77.9500
212.45	77.0500
212.83	75.8000
213.20	76.6500
213.58	76.1000
213.95	75.5500
214.33	76.7500
214.70	76.6000
215.07	76.0000
215.45	76.1500
215.82	76.1000
216.20	76.2500
216.57	77.1500
216.95	75.8500
217.32	76.0000
217.70	76.4000
218.07	76.6500
218.44	76.2000
218.82	76.0500
219.19	77.0000
219.57	77.0500
219.94	76.3000
220.32	75.4500
220.69	77.2000
221.06	77.7000
221.44	76.1000
221.81	76.1000
222.19	76.3500
222.56	76.1000
222.93	76.2000
223.31	76.7000
223.68	75.3500
224.06	74.9000
224.43	75.6500
224.80	77.5500
225.18	77.3500
225.55	76.1000
225.92	76.8500
226.30	77.5500
226.67	76.0000
227.05	76.5000
227.42	75.0000
227.79	75.8500
228.17	76.5000
228.54	75.4500
228.91	77.0000
229.29	75.9000
229.66	75.8000
230.03	77.9500
230.41	76.9000
230.78	77.1500
231.15	76.9000
231.53	76.1500
231.90	76.6000
232.27	76.7500
232.65	76.4500
233.02	76.2500
233.39	76.7000
233.77	76.1000
234.14	75.3500
234.51	76.0500
234.89	77.4500
235.26	77.9000
235.63	77.3000
236.01	77.0000
236.38	76.8000
236.75	76.4000
237.12	76.8000
237.50	76.5000
237.87	77.1000
238.24	76.0000
238.62	76.5000
238.99	76.6500
239.36	75.8000
239.73	77.4000
240.11	76.8000
240.48	76.9000
240.85	77.9000
241.23	76.2500
241.60	77.7000
241.97	77.1000
242.34	77.3500
242.72	76.7000
243.09	76.5000
243.46	76.9000
243.83	77.0000
244.21	76.5000
244.58	76.3500
244.95	76.4000
245.32	76.1000
245.70	77.5000
246.07	76.4500
246.44	77.0000
246.81	76.7500
247.18	76.4000
247.56	76.7000
247.93	76.7500
248.30	76.3000
248.67	76.3500
249.04	76.2500
249.42	77.3000
249.79	77.4000
250.16	77.2000
250.53	77.0000
250.90	75.7000
251.28	76.6000
251.65	76.8500
252.02	76.5000
252.39	76.8500
252.76	76.8500
253.14	76.5000
253.51	76.2000
253.88	77.2500
254.25	77.7500
254.62	77.7000
254.99	77.1500
255.37	76.9000
255.74	77.3500
256.11	76.0500
256.48	76.9500
256.85	76.4000
257.22	76.7500
257.59	76.0500
257.97	76.5000
258.34	76.8000
258.71	76.1000
259.08	76.9500
259.45	76.7500
259.82	76.8500
260.19	77.4000
260.56	76.1000
260.94	77.1000
261.31	76.9500
261.68	77.0500
262.05	76.9500
262.42	76.4500
262.79	77.0500
263.16	76.5500
263.53	76.6500
263.90	76.3000
264.28	77.3000
264.65	77.6000
265.02	76.6000
265.39	77.6000
265.76	77.6500
266.13	76.3000
266.50	77.4000
266.87	77.7000
267.24	76.9500
267.61	77.2500
267.98	77.6000
268.35	77.3000
268.72	76.7000
269.09	75.9000
269.46	76.5000
269.84	77.0000
270.21	76.3500
270.58	76.0500
270.95	76.0000
271.32	75.9500
271.69	77.2000
272.06	77.4000
272.43	77.5500
272.80	77.2000
273.17	77.4000
273.54	76.7000
273.91	77.8000
274.28	78.1000
274.65	77.1000
275.02	76.7500
275.39	76.7000
275.76	76.7500
276.13	76.8500
276.50	77.2000
276.87	77.3500
277.24	77.0500
277.61	76.8500
277.98	77.4000
278.35	76.7500
278.72	76.7500
279.09	76.1500
279.46	77.9500
279.83	76.5500
280.20	77.0000
280.57	77.5000
280.94	79.1000
281.31	77.4500
281.67	77.0000
282.04	77.7000
282.41	77.3500
282.78	77.5000
283.15	76.5000
283.52	77.6500
283.89	77.0500
284.26	77.2000
284.63	77.3500
285.00	76.5000
285.37	77.2000
285.74	77.5500
286.11	77.7000
286.48	77.7500
286.85	76.3500
287.21	77.4000
287.58	77.4000
287.95	77.2000
288.32	77.2500
288.69	78.0500
289.06	77.3000
289.43	76.9000
289.80	77.8000
290.17	76.7000
290.54	76.1000
290.90	77.2000
291.27	76.9500
291.64	76.1500
292.01	78.6500
292.38	76.6000
292.75	77.4000
293.12	77.6000
293.48	77.8000
293.85	77.9500
294.22	78.6500
294.59	77.9500
294.96	77.6000
295.33	76.8500
295.70	78.4500
296.06	77.3500
296.43	77.1500
296.80	77.8000
297.17	77.2500
297.54	78.0500
297.91	76.3000
298.27	78.1500
298.64	77.1500
299.01	77.5500
299.38	78.1000
299.75	76.4000
300.11	77.4000
300.48	77.6000
300.85	77.9500
301.22	77.1500
301.59	77.4000
301.95	78.7000
302.32	77.2000
302.69	76.9000
303.06	77.2000
303.43	76.9500
303.79	77.5000
304.16	77.7500
304.53	78.1000
304.90	77.7500
305.26	77.5500
305.63	78.2500
306.00	77.5500
306.37	76.8500
306.73	77.7500
307.10	77.2000
307.47	77.9500
307.84	77.7000
308.20	77.4000
308.57	77.0000
308.94	78.1500
309.31	77.7000
309.67	77.4000
310.04	77.6500
310.41	76.5000
310.77	76.4000
311.14	78.3000
311.51	77.4500
311.88	78.1000
312.24	77.5000
312.61	77.8500
312.98	76.8000
313.34	76.6000
313.71	78.0000
314.08	78.2000
314.44	78.4000
314.81	78.4500
315.18	77.4000
315.55	76.6500
315.91	77.7500
316.28	76.9500
316.65	77.9000
317.01	77.3000
317.38	78.1500
317.75	77.5500
318.11	78.0000
318.48	77.5000
318.84	78.0500
319.21	77.9500
319.58	76.3000
319.94	77.6000
320.31	76.8000
320.68	77.8000
321.04	76.6000
321.41	78.5000
321.78	78.1500
322.14	77.9500
322.51	77.9500
322.87	78.2000
323.24	77.7000
323.61	77.6000
323.97	78.3000
324.34	77.3000
324.70	77.3500
325.07	77.0000
325.44	78.2000
325.80	77.8500
326.17	78.3500
326.53	78.9000
326.90	78.0000
327.27	78.0000
327.63	76.5000
328.00	77.0500
328.36	78.1000
328.73	77.7500
329.09	78.1500
329.46	77.3500
329.83	77.5500
330.19	77.5500
330.56	78.2500
330.92	77.5000
331.29	78.0500
331.65	77.3500
332.02	77.8000
332.38	77.5000
332.75	77.9000
333.11	77.0500
333.48	78.4500
333.84	79.5500
334.21	78.0500
334.58	78.1000
334.94	78.6500
335.31	77.9500
335.67	78.6500
336.04	77.7000
336.40	77.9000
336.77	77.4000
337.13	79.0000
337.50	78.3000
337.86	78.4000
338.22	78.0500
338.59	78.2500
338.95	78.9500
339.32	78.6500
339.68	78.2000
340.05	78.2000
340.41	78.5500
340.78	78.5500
341.14	77.4500
341.51	77.1500
341.87	78.5000
342.24	77.1500
342.60	78.9500
342.96	79.1000
343.33	79.0500
343.69	78.1500
344.06	78.6500
344.42	78.9000
344.79	79.7500
345.15	78.1500
345.51	78.6500
345.88	79.4000
346.24	78.6000
346.61	78.9000
346.97	78.1000
347.34	79.3500
347.70	77.8500
348.06	78.1000
348.43	77.4000
348.79	78.7000
349.16	78.5000
349.52	77.6000
349.88	80.3500
350.25	78.9000
350.61	79.5500
350.97	78.1500
351.34	78.5000
351.70	78.0500
352.07	79.3000
352.43	78.4500
352.79	78.8000
353.16	78.8500
353.52	78.5000
353.88	78.9500
354.25	80.3500
354.61	79.1000
354.97	79.6000
355.34	79.3000
355.70	78.8500
356.06	78.8500
356.43	79.3500
356.79	79.2500
357.15	78.8500
357.52	78.8000
357.88	79.0500
358.24	78.9500
358.60	79.4000
358.97	79.8000
359.33	80.3000
359.69	80.0500
360.06	79.2000
360.42	78.1000
360.78	79.7000
361.14	79.7500
361.51	80.3500
361.87	79.2000
362.23	79.7500
362.60	78.9000
362.96	79.1500
363.32	79.6000
363.68	79.8000
364.05	80.1500
364.41	80.4500
364.77	80.4000
365.13	80.2500
365.50	80.4500
365.86	79.7500
366.22	80.2500
366.58	80.8000
366.95	80.8000
367.31	80.2500
367.67	80.8000
368.03	81.4000
368.39	80.6500
368.76	81.0000
369.12	81.1500
369.48	81.9000
369.84	80.6000
370.20	80.2500
370.57	80.0000
370.93	80.7500
371.29	81.0500
371.65	81.4500
372.01	82.1500
372.38	82.0500
372.74	82.6500
373.10	82.4500
373.46	82.4000
373.82	81.9500
374.18	81.6500
374.55	81.9500
374.91	82.4500
375.27	82.6000
375.63	81.9500
375.99	81.8500
376.35	82.7500
376.71	83.1000
377.08	82.4500
377.44	83.0000
377.80	83.5000
378.16	81.9000
378.52	84.8500
378.88	83.8500
379.24	83.7000
379.60	84.3500
379.97	83.0000
380.33	83.5500
380.69	83.4000
381.05	83.4000
381.41	85.1000
381.77	83.5500
382.13	85.5000
382.49	83.5500
382.85	85.1500
383.21	86.4000
383.57	85.1500
383.94	84.5500
384.30	85.1000
384.66	86.4500
385.02	85.5500
385.38	86.6500
385.74	85.8500
386.10	86.3000
386.46	86.7500
386.82	86.8000
387.18	86.6000
387.54	86.9500
387.90	87.2500
388.26	87.6000
388.62	88.3500
388.98	87.2500
389.34	86.2000
389.70	88.4500
390.06	86.2500
390.42	87.2500
390.78	88.3500
391.14	89.3000
391.50	89.6000
391.86	90.2500
392.22	89.3000
392.58	88.8500
392.94	87.5000
393.30	89.3000
393.66	88.9500
394.02	90.2500
394.38	88.6500
394.74	90.7500
395.10	90.3000
395.46	90.6500
395.82	90.6500
396.18	90.5000
396.54	91.8000
396.90	92.6000
397.26	93.5500
397.62	92.4000
397.98	93.0000
398.34	91.0500
398.70	92.0500
399.05	91.1000
399.41	91.5500
399.77	92.8000
400.13	92.2000
400.49	93.3000
400.85	95.0000
401.21	93.5500
401.57	96.6500
401.93	94.7000
402.29	94.0500
402.65	94.5000
403.00	96.2500
403.36	96.2000
403.72	95.3000
404.08	97.7000
404.44	95.1500
404.80	96.9500
405.16	99.0500
405.52	98.1000
405.87	99.0000
406.23	99.3000
406.59	97.0500
406.95	96.7000
407.31	98.7000
407.67	98.4500
408.03	98.5500
408.38	99.6000
408.74	102.3500
409.10	101.3500
409.46	99.1000
409.82	102.3500
410.17	101.0500
410.53	101.2500
410.89	102.4500
411.25	100.1000
411.61	100.8000
411.97	102.5500
412.32	103.4500
412.68	104.0000
413.04	103.4500
413.40	99.0500
413.75	101.9000
414.11	103.9500
414.47	102.9500
414.83	105.7000
415.19	103.9000
415.54	104.1000
415.90	104.8000
416.26	105.6000
416.62	107.4000
416.97	104.4500
417.33	106.9000
417.69	107.9000
418.05	106.1500
418.40	105.6500
418.76	107.1000
419.12	109.2500
419.48	109.1000
419.83	110.9500
420.19	106.6000
420.55	107.7000
420.90	112.3500
421.26	108.7000
421.62	108.9000
421.98	111.8000
422.33	112.6000
422.69	112.9500
423.05	115.8500
423.40	109.1000
423.76	108.5000
424.12	115.4000
424.47	114.3500
424.83	114.9000
425.19	113.0500
425.54	112.2500
425.90	115.3500
426.26	117.4500
426.61	118.5000
426.97	109.8500
427.33	116.5000
427.68	116.8000
428.04	120.2000
428.40	121.8500
428.75	124.2000
429.11	119.2500
429.47	123.7500
429.82	123.9000
430.18	122.8000
430.53	122.7000
430.89	122.3000
431.25	124.0000
431.60	124.4000
431.96	124.3000
432.31	122.7500
432.67	126.9000
433.03	129.2500
433.38	125.9500
433.74	127.7500
434.09	126.5000
434.45	125.3500
434.81	124.6500
435.16	129.6000
435.52	125.7500
435.87	124.9500
436.23	125.6000
436.58	127.4500
436.94	129.0000
437.30	129.8000
437.65	134.1000
438.01	132.6500
438.36	132.0000
438.72	130.8500
439.07	129.4500
439.43	130.3000
439.78	135.5500
440.14	139.0500
440.49	131.9500
440.85	133.0000
441.20	136.7000
441.56	135.6500
441.91	143.3000
442.27	137.3000
442.62	137.0500
442.98	138.2500
443.33	137.8000
443.69	138.0500
444.04	140.2500
444.40	134.8000
444.75	140.8000
445.11	143.3500
445.46	144.9500
445.82	143.4000
446.17	140.3000
446.53	145.5000
446.88	152.5000
447.23	139.0500
447.59	140.0500
447.94	140.1000
448.30	145.5500
448.65	144.2500
449.01	147.7500
449.36	149.2000
449.72	155.8000
450.07	158.4500
450.42	156.2500
450.78	151.4000
451.13	156.3000
451.49	153.9500
451.84	149.4000
452.19	150.6500
452.55	155.4500
452.90	155.7000
453.26	162.7500
453.61	164.7500
453.96	151.2500
454.32	161.4000
454.67	159.1500
455.02	154.0000
455.38	158.3000
455.73	158.1500
456.09	165.2000
456.44	165.6000
456.79	165.9500
457.15	164.5000
457.50	160.8500
457.85	163.6500
458.21	161.9000
458.56	168.1500
458.91	166.4500
459.27	159.9500
459.62	164.3000
459.97	166.0000
460.32	170.7500
460.68	169.7000
461.03	170.0000
461.38	171.0500
461.74	181.4500
462.09	177.5500
462.44	171.5000
462.80	171.6500
463.15	173.2500
463.50	172.9500
463.85	180.9000
464.21	178.5000
464.56	183.3500
464.91	173.7000
465.26	179.3000
465.62	180.6000
465.97	188.4500
466.32	186.5500
466.67	186.3000
467.03	186.5500
467.38	190.0500
467.73	191.2500
468.08	194.6000
468.44	196.3000
468.79	197.5000
469.14	188.9500
469.49	197.0500
469.85	201.0500
470.20	213.4500
470.55	211.1000
470.90	214.5000
471.25	206.7000
471.61	212.6500
471.96	213.2500
472.31	218.9000
472.66	217.6000
473.01	223.6500
473.36	226.7500
473.72	226.5000
474.07	230.2500
474.42	232.0000
474.77	233.4000
475.12	236.5500
475.47	243.8500
475.83	242.7000
476.18	243.3500
476.53	242.8500
476.88	251.4500
477.23	253.8000
477.58	251.7000
477.93	256.4000
478.28	253.5000
478.64	260.1500
478.99	265.9500
479.34	269.3000
479.69	271.2000
480.04	275.7500
480.39	277.7500
480.74	273.8500
481.09	286.6500
481.44	287.0000
481.79	285.5500
482.15	290.1500
482.50	292.8500
482.85	293.4000
483.20	302.1500
483.55	303.1000
483.90	306.5000
484.25	306.2500
484.60	306.6500
484.95	312.8500
485.30	313.0000
485.65	316.7000
486.00	322.2000
486.35	318.4500
486.70	318.9500
487.05	329.6000
487.40	328.7000
487.75	331.2500
488.10	334.7000
488.45	331.7500
488.80	336.7500
489.15	342.1500
489.50	343.9500
489.85	345.3000
490.20	345.3000
490.55	349.4500
490.90	350.4000
491.25	353.0000
491.60	352.3500
491.95	354.5000
492.30	357.5500
492.65	360.7500
493.00	362.4000
493.35	363.4500
493.70	364.8500
494.05	368.3500
494.40	372.7000
494.75	374.0000
495.10	373.8000
495.45	375.8000
495.80	379.5500
496.15	383.9000
496.50	379.4500
496.84	382.0000
497.19	381.8500
497.54	389.0500
497.89	392.2000
498.24	391.6000
498.59	397.1500
498.94	393.8000
499.29	397.3000
499.64	402.5000
499.99	407.5500
500.33	410.4500
500.68	410.7000
501.03	413.3500
501.38	418.5000
501.73	421.8000
502.08	422.5000
502.43	428.4500
502.77	432.1000
503.12	438.5000
503.47	442.3000
503.82	449.2500
504.17	454.8500
504.52	463.5000
504.86	465.5500
505.21	477.2500
505.56	483.6500
505.91	488.1500
506.26	495.3000
506.61	507.0500
506.95	513.4500
507.30	523.1500
507.65	535.9000
508.00	543.1500
508.35	555.3000
508.69	566.3500
509.04	581.6000
509.39	590.1500
509.74	603.8000
510.08	617.9000
510.43	640.7000
510.78	653.1500
511.13	668.2000
511.47	686.8000
511.82	707.6000
512.17	720.5000
512.52	746.4500
512.86	769.0500
513.21	791.0500
513.56	807.5000
513.91	834.4000
514.25	857.0000
514.60	882.0000
514.95	907.9500
515.30	932.5000
515.64	953.6000
515.99	987.1000
516.34	1014.8000
516.68	1044.1000
517.03	1070.4500
517.38	1091.6000
517.72	1137.4000
518.07	1155.1000
518.42	1180.4000
518.76	1217.9000
519.11	1242.1000
519.46	1278.5500
519.80	1292.8000
520.15	1320.1000
520.50	1354.0500
520.84	1373.0000
521.19	1398.9500
521.54	1430.1000
521.88	1445.3000
522.23	1480.2500
522.58	1497.5500
522.92	1519.6500
523.27	1549.6500
523.61	1560.6000
523.96	1582.0500
524.31	1616.6500
524.65	1635.3500
525.00	1643.9500
525.34	1637.7000
525.69	1661.2000
526.04	1689.4500
526.38	1713.2500
526.73	1719.8500
527.07	1747.4500
527.42	1751.8500
527.76	1768.8500
528.11	1788.7500
528.46	1781.3500
528.80	1789.7000
529.15	1793.5500
529.49	1799.2000
529.84	1818.5500
530.18	1830.5000
530.53	1846.8500
530.87	1847.0000
531.22	1845.9500
531.56	1862.2500
531.91	1869.6000
532.25	1868.6500
532.60	1876.1500
532.94	1887.1500
533.29	1889.2000
533.63	1882.9500
533.98	1883.2000
534.32	1897.1500
534.67	1925.0500
535.01	1936.7500
535.36	1923.2500
535.70	1947.6500
536.05	1950.2500
536.39	1963.4000
536.74	1941.6000
537.08	1931.5000
537.43	1935.6500
537.77	1962.6000
538.12	1978.7000
538.46	1978.8500
538.80	1987.0500
539.15	1968.8500
539.49	1985.7000
539.84	2008.5500
540.18	2006.8000
540.53	2005.1500
540.87	2005.4000
541.21	2026.0500
541.56	2018.7500
541.90	2038.2000
542.25	2023.7000
542.59	2022.5500
542.93	2045.3500
543.28	2033.3500
543.62	2045.9000
543.97	2050.7500
544.31	2059.3000
544.65	2063.6499
545.00	2071.5500
545.34	2084.2500
545.68	2080.7000
546.03	2075.5000
546.37	2093.3000
546.71	2096.9500
547.06	2104.6001
547.40	2108.3501
547.74	2131.7000
548.09	2118.3000
548.43	2124.7000
548.77	2128.3999
549.12	2132.9500
549.46	2129.8000
549.80	2144.3000
550.15	2165.5000
550.49	2163.3000
550.83	2165.0500
551.17	2180.5000
551.52	2175.1499
551.86	2173.8000
552.20	2182.7000
552.55	2199.6499
552.89	2200.6499
553.23	2208.3999
553.57	2219.1499
553.92	2220.2500
554.26	2233.0500
554.60	2224.3999
554.94	2231.9500
555.29	2247.3999
555.63	2251.3999
555.97	2260.3501
556.31	2264.3000
556.66	2275.5500
557.00	2269.3000
557.34	2282.1499
557.68	2296.8999
558.02	2296.7500
558.37	2306.3999
558.71	2303.1001
559.05	2304.0500
559.39	2319.1499
559.73	2327.8999
560.08	2322.2500
560.42	2339.8999
560.76	2337.8501
561.10	2346.3000
561.44	2335.2000
561.78	2356.0000
562.13	2370.2500
562.47	2355.1001
562.81	2372.5000
563.15	2374.2000
563.49	2376.8999
563.83	2388.9500
564.17	2387.8501
564.52	2390.3999
564.86	2404.2000
565.20	2399.0500
565.54	2398.8000
565.88	2404.6499
566.22	2419.3999
566.56	2406.1001
566.90	2419.8000
567.24	2429.8501
567.59	2421.5500
567.93	2432.6499
568.27	2443.0000
568.61	2451.9500
568.95	2438.3501
569.29	2436.2000
569.63	2468.5500
569.97	2456.0000
570.31	2421.7000
570.65	2442.5000
570.99	2456.7000
571.33	2468.6499
571.67	2450.8999
572.01	2455.6499
572.35	2469.8501
572.69	2477.6001
573.03	2484.1001
573.37	2473.2500
573.71	2470.2500
574.05	2458.2500
574.39	2466.5500
574.73	2486.6001
575.07	2465.8501
575.41	2470.5000
575.75	2488.6001
576.09	2507.0500
576.43	2490.0000
576.77	2490.1001
577.11	2476.0500
577.45	2494.4500
577.79	2479.2000
578.13	2499.3000
578.47	2472.8000
578.81	2475.6001
579.15	2486.4500
579.49	2515.3501
579.83	2514.1001
580.17	2515.1001
580.51	2504.1499
580.85	2512.0500
581.19	2503.2500
581.53	2491.7500
581.87	2498.1499
582.20	2499.5500
582.54	2506.8501
582.88	2503.0000
583.22	2494.6001
583.56	2487.7000
583.90	2518.3999
584.24	2506.5000
584.58	2504.3501
584.92	2522.3000
585.25	2523.2500
585.59	2511.9500
585.93	2525.8501
586.27	2539.0500
586.61	2508.1499
586.95	2532.0500
587.29	2535.2500
587.62	2514.1001
587.96	2523.0000
588.30	2534.0000
588.64	2524.8999
588.98	2526.1001
589.31	2540.5500
589.65	2530.7000
589.99	2517.5000
590.33	2533.2500
590.67	2540.1499
591.01	2542.0000
591.34	2556.6001
591.68	2550.8501
592.02	2559.5000
592.36	2550.3999
592.69	2546.2000
593.03	2558.8999
593.37	2563.9500
593.71	2555.8999
594.04	2559.3999
594.38	2553.1499
594.72	2575.8000
595.06	2559.3999
595.39	2561.6001
595.73	2570.5500
596.07	2588.7500
596.41	2583.6001
596.74	2579.7500
597.08	2581.3000
597.42	2583.7500
597.76	2571.2500
598.09	2591.8999
598.43	2577.0500
598.77	2601.3000
599.10	2608.3999
