OOIBase32 Version 1.0.0.8 Data File
++++++++++++++++++++++++++++++++++++
Date: Monday, January 21, 1980, 02:23:44
User: Valued Ocean Optics Customer
Spectrometer Serial Number: Unknown
Spectrometer Channel: Master
Integration Time (msec): 7
Spectra Averaged: 20
Boxcar Smoothing: 0
Correct for Electrical Dark: Disabled
Time Normalized: Disabled
Dual-beam Reference: Disabled
Reference Channel: Master
>>>>>Begin Spectral Data<<<<<
179.00	0.0000
179.38	0.0000
179.75	72.4500
180.13	72.2000
180.51	73.2500
180.88	73.3500
181.26	74.3000
181.64	74.3500
182.02	75.1000
182.39	73.7500
182.77	73.0500
183.15	73.0500
183.52	73.2500
183.90	73.7500
184.28	73.5000
184.65	73.4500
185.03	72.0000
185.41	72.2000
185.78	73.6000
186.16	73.4500
186.53	73.6000
186.91	73.4500
187.29	73.4500
187.66	74.0500
188.04	75.1000
188.42	76.4500
188.79	76.2000
189.17	76.4500
189.55	76.1000
189.92	77.2000
190.30	77.0500
190.67	77.1500
191.05	76.6000
191.43	75.9500
191.80	76.4500
192.18	76.5500
192.56	76.6500
192.93	76.6500
193.31	76.0000
193.68	75.9500
194.06	76.4500
194.44	76.0000
194.81	76.3000
195.19	77.2500
195.56	76.7500
195.94	77.4000
196.32	77.2500
196.69	77.1000
197.07	76.8000
197.44	76.7500
197.82	76.7000
198.19	76.9000
198.57	77.0500
198.95	76.9500
199.32	77.0500
199.70	77.1500
200.07	76.4500
200.45	77.2000
200.82	77.5500
201.20	77.1000
201.57	77.4500
201.95	76.9500
202.33	76.1500
202.70	77.3500
203.08	76.8500
203.45	77.3500
203.83	76.7500
204.20	77.2000
204.58	77.6000
204.95	77.3500
205.33	76.3000
205.70	76.2000
206.08	76.8000
206.45	75.8000
206.83	76.3500
207.20	76.9500
207.58	76.5000
207.95	76.8500
208.33	77.7500
208.70	77.7500
209.08	76.7000
209.45	77.4000
209.83	77.6000
210.20	77.0500
210.58	77.3000
210.95	77.4000
211.33	77.7000
211.70	77.7500
212.08	77.7000
212.45	77.1500
212.83	77.2500
213.20	77.1500
213.58	76.9500
213.95	77.7000
214.33	77.4500
214.70	77.7500
215.07	76.6000
215.45	77.1000
215.82	77.7500
216.20	77.9500
216.57	77.4500
216.95	76.8500
217.32	77.0500
217.70	77.5500
218.07	76.8500
218.44	77.2500
218.82	77.4500
219.19	78.0000
219.57	78.0000
219.94	77.0000
220.32	77.1000
220.69	77.4500
221.06	77.0500
221.44	76.8000
221.81	78.0500
222.19	77.5500
222.56	77.0500
222.93	76.8000
223.31	76.6500
223.68	76.8000
224.06	76.9500
224.43	77.6000
224.80	77.4500
225.18	77.8500
225.55	78.1500
225.92	78.3000
226.30	78.0000
226.67	76.8500
227.05	77.8000
227.42	76.6500
227.79	76.4000
228.17	77.6500
228.54	75.6000
228.91	77.2000
229.29	77.7500
229.66	76.5500
230.03	77.4000
230.41	77.1500
230.78	77.8000
231.15	77.9500
231.53	77.4000
231.90	76.7500
232.27	77.5000
232.65	77.5500
233.02	77.5500
233.39	77.5000
233.77	77.0500
234.14	76.8000
234.51	77.0500
234.89	77.0000
235.26	78.4000
235.63	78.4500
236.01	78.6000
236.38	77.0500
236.75	76.3000
237.12	76.0500
237.50	76.7000
237.87	76.7500
238.24	77.1000
238.62	78.2500
238.99	77.0500
239.36	77.9000
239.73	75.8500
240.11	77.7000
240.48	77.8500
240.85	76.6500
241.23	77.8000
241.60	76.9000
241.97	77.5500
242.34	78.4500
242.72	77.2000
243.09	77.4500
243.46	77.8500
243.83	77.9500
244.21	78.6500
244.58	76.8500
244.95	77.5500
245.32	78.8000
245.70	78.8500
246.07	78.3500
246.44	77.2500
246.81	77.1000
247.18	77.6000
247.56	77.1500
247.93	77.6000
248.30	78.2500
248.67	77.6000
249.04	78.4000
249.42	78.5000
249.79	77.6000
250.16	77.0000
250.53	78.1500
250.90	78.7500
251.28	79.0500
251.65	78.5500
252.02	77.9000
252.39	77.9500
252.76	78.6000
253.14	77.7500
253.51	77.7500
253.88	78.0000
254.25	78.9000
254.62	77.3500
254.99	77.4500
255.37	78.1000
255.74	78.6000
256.11	78.3000
256.48	78.4500
256.85	79.1500
257.22	77.3000
257.59	78.5500
257.97	78.6000
258.34	77.5500
258.71	76.9500
259.08	78.4000
259.45	77.6000
259.82	77.7500
260.19	77.8500
260.56	77.7500
260.94	78.5500
261.31	77.4500
261.68	77.6000
262.05	78.1000
262.42	77.5000
262.79	77.7500
263.16	78.4000
263.53	78.6000
263.90	76.9500
264.28	77.5000
264.65	77.8000
265.02	77.2500
265.39	79.1500
265.76	77.7500
266.13	77.4500
266.50	78.6500
266.87	78.5000
267.24	78.3500
267.61	77.8000
267.98	78.2000
268.35	78.2500
268.72	78.7000
269.09	77.3000
269.46	77.1000
269.84	77.8500
270.21	77.7500
270.58	77.4500
270.95	77.6000
271.32	77.6000
271.69	78.2500
272.06	78.4500
272.43	78.2500
272.80	78.3500
273.17	76.8500
273.54	78.4000
273.91	77.9000
274.28	78.4000
274.65	78.2500
275.02	77.2000
275.39	78.5500
275.76	77.9000
276.13	77.7000
276.50	78.2500
276.87	79.3000
277.24	77.6500
277.61	77.5500
277.98	78.3000
278.35	77.4000
278.72	77.9500
279.09	79.0000
279.46	78.4500
279.83	79.5500
280.20	77.6500
280.57	78.4500
280.94	79.0000
281.31	77.7000
281.67	78.1000
282.04	78.1000
282.41	77.7000
282.78	77.6000
283.15	77.9500
283.52	77.9000
283.89	79.2000
284.26	78.2000
284.63	78.0500
285.00	78.1500
285.37	79.2500
285.74	78.7500
286.11	78.3000
286.48	79.0000
286.85	78.5000
287.21	77.4500
287.58	77.9500
287.95	77.6500
288.32	78.7500
288.69	78.2500
289.06	77.8500
289.43	78.4000
289.80	78.5500
290.17	76.5000
290.54	78.1000
290.90	78.1000
291.27	79.7000
291.64	78.9500
292.01	78.3000
292.38	77.4000
292.75	79.1500
293.12	78.5000
293.48	78.5000
293.85	79.3000
294.22	78.6000
294.59	78.7000
294.96	78.8500
295.33	79.4500
295.70	78.8500
296.06	78.6000
296.43	78.2500
296.80	78.3500
297.17	78.6500
297.54	78.4000
297.91	78.7000
298.27	79.7000
298.64	79.0000
299.01	79.0500
299.38	78.3500
299.75	78.9000
300.11	78.8500
300.48	78.4500
300.85	80.4500
301.22	78.8000
301.59	78.2500
301.95	77.3000
302.32	78.1500
302.69	78.6500
303.06	79.7000
303.43	78.8500
303.79	78.3000
304.16	79.3000
304.53	78.0000
304.90	79.1000
305.26	78.8500
305.63	77.2500
306.00	78.2000
306.37	78.3500
306.73	77.8500
307.10	78.6500
307.47	78.0500
307.84	78.4000
308.20	79.6000
308.57	78.9500
308.94	79.0000
309.31	79.0000
309.67	79.0500
310.04	79.4500
310.41	79.1000
310.77	79.0500
311.14	79.1000
311.51	79.2000
311.88	79.2500
312.24	77.8000
312.61	77.9500
312.98	79.2000
313.34	78.5500
313.71	79.4500
314.08	78.8000
314.44	79.2500
314.81	79.2000
315.18	78.2000
315.55	79.5500
315.91	79.0000
316.28	79.3500
316.65	79.7500
317.01	77.7500
317.38	78.6000
317.75	79.5000
318.11	79.4000
318.48	79.0500
318.84	79.1000
319.21	79.0500
319.58	78.7500
319.94	78.7500
320.31	78.7500
320.68	79.1000
321.04	79.3000
321.41	78.6000
321.78	79.1500
322.14	79.4000
322.51	80.2500
322.87	78.0500
323.24	79.4000
323.61	79.1000
323.97	79.1000
324.34	78.9500
324.70	78.3500
325.07	78.3500
325.44	79.0000
325.80	79.6500
326.17	79.5500
326.53	79.8500
326.90	78.0000
327.27	79.2500
327.63	78.3500
328.00	78.8500
328.36	79.1000
328.73	79.8000
329.09	78.2000
329.46	78.7000
329.83	79.9500
330.19	79.2500
330.56	79.2000
330.92	79.2000
331.29	79.2000
331.65	79.1000
332.02	78.6000
332.38	78.6000
332.75	78.8000
333.11	79.3000
333.48	78.4000
333.84	78.8000
334.21	79.9500
334.58	80.3500
334.94	78.9000
335.31	78.8000
335.67	79.6500
336.04	79.4500
336.40	79.7000
336.77	79.3500
337.13	78.6000
337.50	79.0500
337.86	79.4500
338.22	79.8000
338.59	78.5500
338.95	78.9000
339.32	80.0500
339.68	80.0500
340.05	79.7000
340.41	79.5000
340.78	80.0500
341.14	79.5000
341.51	78.6000
341.87	79.0000
342.24	79.3500
342.60	78.7500
342.96	79.6500
343.33	79.9000
343.69	79.2500
344.06	79.2000
344.42	79.4500
344.79	80.1000
345.15	78.9500
345.51	80.1000
345.88	79.9000
346.24	79.9500
346.61	79.7500
346.97	81.0000
347.34	79.4000
347.70	79.6000
348.06	79.4000
348.43	79.6500
348.79	80.3500
349.16	78.9000
349.52	80.1500
349.88	80.1000
350.25	79.7000
350.61	79.6000
350.97	79.9000
351.34	79.5500
351.70	79.5500
352.07	79.9000
352.43	79.9000
352.79	80.4500
353.16	80.5000
353.52	80.2000
353.88	80.3000
354.25	79.7500
354.61	79.8500
354.97	80.2500
355.34	78.5000
355.70	79.5000
356.06	80.0000
356.43	80.3000
356.79	79.9000
357.15	79.7000
357.52	80.2000
357.88	80.1000
358.24	80.1000
358.60	79.9000
358.97	80.9000
359.33	80.3500
359.69	79.4500
360.06	80.5000
360.42	80.0500
360.78	79.7000
361.14	79.7000
361.51	81.5500
361.87	80.7000
362.23	81.3000
362.60	80.4000
362.96	81.6500
363.32	80.6000
363.68	80.7000
364.05	79.8500
364.41	81.4500
364.77	80.5500
365.13	81.2000
365.50	80.3500
365.86	80.5000
366.22	80.8500
366.58	81.0000
366.95	80.9000
367.31	81.2500
367.67	81.5500
368.03	80.8500
368.39	79.4000
368.76	80.8000
369.12	81.4500
369.48	81.8000
369.84	82.0000
370.20	81.5000
370.57	81.9000
370.93	81.2000
371.29	81.8500
371.65	82.0000
372.01	82.1500
372.38	82.1000
372.74	82.1000
373.10	81.5000
373.46	82.8000
373.82	82.3500
374.18	81.2500
374.55	82.2000
374.91	82.7500
375.27	81.3000
375.63	82.8500
375.99	82.9000
376.35	83.0000
376.71	83.7500
377.08	82.6000
377.44	83.7500
377.80	83.4000
378.16	83.9000
378.52	86.5500
378.88	86.1500
379.24	86.0500
379.60	87.0500
379.97	87.6500
380.33	88.6000
380.69	87.4500
381.05	88.9500
381.41	90.8000
381.77	90.0500
382.13	91.7500
382.49	94.0000
382.85	94.6000
383.21	95.5000
383.57	95.8000
383.94	99.1000
384.30	99.4500
384.66	100.9000
385.02	100.6500
385.38	102.3500
385.74	101.6000
386.10	105.4000
386.46	107.6000
386.82	108.3500
387.18	108.8500
387.54	111.0000
387.90	110.6000
388.26	113.6500
388.62	115.7000
388.98	114.8000
389.34	117.0000
389.70	117.5000
390.06	116.1000
390.42	117.5000
390.78	120.1500
391.14	124.5000
391.50	124.5500
391.86	127.8000
392.22	127.6000
392.58	128.1000
392.94	124.8000
393.30	127.7000
393.66	129.8000
394.02	131.2000
394.38	128.4500
394.74	133.8000
395.10	132.9500
395.46	137.4000
395.82	136.2500
396.18	133.1500
396.54	140.1000
396.90	142.5500
397.26	141.7000
397.62	141.6500
397.98	146.9500
398.34	141.4000
398.70	142.3500
399.05	140.5000
399.41	141.6000
399.77	145.2500
400.13	150.0500
400.49	149.8500
400.85	154.5000
401.21	148.5500
401.57	157.6000
401.93	154.8500
402.29	154.4500
402.65	157.4000
403.00	161.6000
403.36	163.8500
403.72	161.2500
404.08	171.5500
404.44	162.8000
404.80	165.6000
405.16	171.7500
405.52	175.9000
405.87	178.5500
406.23	181.2500
406.59	170.2000
406.95	172.7500
407.31	176.4000
407.67	177.0000
408.03	177.4500
408.38	185.8000
408.74	193.3500
409.10	192.5500
409.46	184.2500
409.82	190.9000
410.17	191.2000
410.53	186.5500
410.89	194.5500
411.25	182.0500
411.61	189.8500
411.97	200.2500
412.32	197.5000
412.68	205.6500
413.04	199.5500
413.40	185.1500
413.75	197.4500
414.11	202.7500
414.47	201.9000
414.83	214.1000
415.19	207.7000
415.54	198.6000
415.90	211.2500
416.26	208.9500
416.62	218.2000
416.97	208.1000
417.33	220.4000
417.69	222.7000
418.05	215.9500
418.40	208.8500
418.76	219.6000
419.12	232.6500
419.48	229.6000
419.83	240.2500
420.19	216.2500
420.55	224.1000
420.90	244.7000
421.26	232.6500
421.62	227.9000
421.98	243.1000
422.33	250.4500
422.69	255.0500
423.05	259.3500
423.40	235.2500
423.76	229.0000
424.12	253.2000
424.47	253.3000
424.83	251.7500
425.19	251.6500
425.54	249.9000
425.90	264.1500
426.26	272.6500
426.61	275.4000
426.97	239.4500
427.33	269.1500
427.68	267.4000
428.04	287.8500
428.40	298.2500
428.75	306.0000
429.11	279.8500
429.47	306.8000
429.82	303.4000
430.18	301.3000
430.53	291.1000
430.89	296.3000
431.25	301.9500
431.60	310.6500
431.96	302.8500
432.31	299.7000
432.67	320.4500
433.03	328.5500
433.38	313.9500
433.74	327.7000
434.09	324.4000
434.45	313.9000
434.81	311.9500
435.16	331.3500
435.52	311.3500
435.87	304.8500
436.23	309.6000
436.58	315.7000
436.94	333.0000
437.30	334.8500
437.65	350.5500
438.01	341.2000
438.36	342.6500
438.72	341.2000
439.07	334.9000
439.43	340.7500
439.78	364.6000
440.14	378.6000
440.49	348.3000
440.85	352.7000
441.20	368.3500
441.56	363.5500
441.91	393.1500
442.27	362.3500
442.62	366.3000
442.98	378.6500
443.33	369.5000
443.69	374.7500
444.04	370.4500
444.40	356.3500
444.75	392.7500
445.11	396.2500
445.46	406.6000
445.82	407.1500
446.17	379.8000
446.53	406.0500
446.88	445.8500
447.23	376.9000
447.59	380.9500
447.94	381.7500
448.30	408.6000
448.65	399.7500
449.01	424.4000
449.36	422.2500
449.72	454.9000
450.07	473.3000
450.42	456.6500
450.78	438.9000
451.13	458.7500
451.49	440.2000
451.84	429.5500
452.19	436.2000
452.55	454.9500
452.90	459.5500
453.26	489.5000
453.61	508.8000
453.96	431.5000
454.32	480.3000
454.67	482.5000
455.02	452.7500
455.38	472.7000
455.73	469.5000
456.09	509.5000
456.44	512.2000
456.79	504.4500
457.15	503.8500
457.50	481.2000
457.85	495.4500
458.21	493.6500
458.56	518.2500
458.91	508.4500
459.27	478.3500
459.62	498.3500
459.97	506.3500
460.32	525.2000
460.68	525.1000
461.03	519.1500
461.38	530.9000
461.74	581.0000
462.09	564.7000
462.44	537.7500
462.80	538.4000
463.15	543.8500
463.50	541.9000
463.85	580.1000
464.21	560.3500
464.56	593.0500
464.91	551.2000
465.26	570.0000
465.62	572.8000
465.97	608.6500
466.32	608.9000
466.67	606.3500
467.03	610.6500
467.38	622.2000
467.73	629.6500
468.08	645.3500
468.44	656.1500
468.79	654.0000
469.14	619.9000
469.49	657.9000
469.85	673.3000
470.20	732.9000
470.55	731.3000
470.90	732.7000
471.25	699.7000
471.61	727.3000
471.96	733.0000
472.31	752.1000
472.66	757.5500
473.01	775.0000
473.36	798.6500
473.72	788.4000
474.07	814.8500
474.42	817.1500
474.77	821.6000
475.12	848.0500
475.47	872.5000
475.83	876.4000
476.18	874.7000
476.53	868.6000
476.88	916.5500
477.23	922.4500
477.58	913.2500
477.93	935.4500
478.28	932.9500
478.64	951.4500
478.99	974.0500
479.34	988.2000
479.69	1008.0500
480.04	1031.2000
480.39	1035.9500
480.74	1018.7000
481.09	1077.7000
481.44	1079.6500
481.79	1077.0500
482.15	1094.1500
482.50	1111.8000
482.85	1114.7500
483.20	1153.1500
483.55	1152.9500
483.90	1173.1500
484.25	1166.1000
484.60	1167.5000
484.95	1194.7000
485.30	1203.5500
485.65	1215.4000
486.00	1234.8500
486.35	1214.9500
486.70	1232.4500
487.05	1277.6500
487.40	1277.0000
487.75	1287.4500
488.10	1296.1500
488.45	1288.2500
488.80	1304.1500
489.15	1334.7000
489.50	1341.9500
489.85	1349.3000
490.20	1349.8000
490.55	1371.4000
490.90	1380.0000
491.25	1388.1000
491.60	1378.9500
491.95	1388.0500
492.30	1400.2500
492.65	1418.2000
493.00	1415.9000
493.35	1424.0500
493.70	1438.7000
494.05	1447.9500
494.40	1471.8500
494.75	1476.7000
495.10	1466.3500
495.45	1470.0000
495.80	1492.2500
496.15	1506.2000
496.50	1493.6500
496.84	1497.6000
497.19	1501.0000
497.54	1522.5500
497.89	1524.3000
498.24	1529.6500
498.59	1552.6500
498.94	1541.2000
499.29	1548.9500
499.64	1555.7500
499.99	1570.0500
500.33	1578.2500
500.68	1584.3000
501.03	1591.5000
501.38	1593.2000
501.73	1612.0000
502.08	1601.7500
502.43	1620.7500
502.77	1632.5500
503.12	1636.9500
503.47	1641.8000
503.82	1654.6500
504.17	1666.3500
504.52	1682.7500
504.86	1685.7500
505.21	1713.6500
505.56	1701.8000
505.91	1714.9500
506.26	1713.3000
506.61	1734.0000
506.95	1735.6500
507.30	1740.6500
507.65	1769.6000
508.00	1766.3500
508.35	1773.8000
508.69	1780.3500
509.04	1795.3000
509.39	1792.1500
509.74	1800.2000
510.08	1808.3500
510.43	1833.6000
510.78	1831.7000
511.13	1844.3500
511.47	1853.5000
511.82	1864.6500
512.17	1857.9500
512.52	1888.8000
512.86	1900.3000
513.21	1909.7500
513.56	1912.7500
513.91	1937.7000
514.25	1940.2000
514.60	1946.8500
514.95	1957.0500
515.30	1963.6000
515.64	1963.5500
515.99	1996.0500
516.34	2000.1500
516.68	2014.6500
517.03	2019.5500
517.38	2025.7000
517.72	2062.3999
518.07	2051.1499
518.42	2056.1001
518.76	2077.2500
519.11	2085.8000
519.46	2103.9500
519.80	2096.8501
520.15	2108.0000
520.50	2125.2000
520.84	2126.9500
521.19	2139.0000
521.54	2148.1001
521.88	2144.3501
522.23	2172.1001
522.58	2157.9500
522.92	2170.0000
523.27	2185.5000
523.61	2188.3501
523.96	2196.4500
524.31	2223.5000
524.65	2234.0000
525.00	2224.9500
525.34	2199.8501
525.69	2213.1499
526.04	2246.3501
526.38	2252.1001
526.73	2251.2000
527.07	2277.9500
527.42	2273.8999
527.76	2287.5000
528.11	2299.3000
528.46	2287.2000
528.80	2292.1499
529.15	2283.5500
529.49	2285.3501
529.84	2301.3999
530.18	2312.7000
530.53	2328.1499
530.87	2322.8999
531.22	2314.7000
531.56	2322.5000
531.91	2337.8999
532.25	2330.1001
532.60	2330.1499
532.94	2343.7000
533.29	2338.4500
533.63	2330.5500
533.98	2333.9500
534.32	2352.0500
534.67	2380.8000
535.01	2386.7500
535.36	2368.0500
535.70	2396.7000
536.05	2402.5500
536.39	2415.4500
536.74	2385.6499
537.08	2374.0000
537.43	2370.6001
537.77	2403.8999
538.12	2422.1499
538.46	2422.6499
538.80	2435.8501
539.15	2417.8501
539.49	2439.8999
539.84	2460.8999
540.18	2452.3501
540.53	2454.2000
540.87	2449.7500
541.21	2476.1001
541.56	2468.8999
541.90	2482.4500
542.25	2473.3501
542.59	2464.7500
542.93	2496.8999
543.28	2484.4500
543.62	2493.8501
543.97	2504.3501
544.31	2508.6001
544.65	2520.6001
545.00	2527.5500
545.34	2534.4500
545.68	2536.8000
546.03	2534.3501
546.37	2548.3501
546.71	2553.1001
547.06	2567.0500
547.40	2560.5000
547.74	2598.1499
548.09	2584.1499
548.43	2580.5500
548.77	2591.3501
549.12	2593.1499
549.46	2589.0500
549.80	2607.6001
550.15	2629.1001
550.49	2627.9500
550.83	2630.6499
551.17	2641.8501
551.52	2641.2000
551.86	2646.6499
552.20	2653.5000
552.55	2674.3000
552.89	2675.2500
553.23	2686.9500
553.57	2701.6499
553.92	2692.8999
554.26	2707.5500
554.60	2690.8000
554.94	2710.2000
555.29	2724.9500
555.63	2727.4500
555.97	2749.3999
556.31	2746.1499
556.66	2756.4500
557.00	2747.6001
557.34	2767.6499
557.68	2788.8999
558.02	2791.3999
558.37	2794.3000
558.71	2790.4500
559.05	2793.1001
559.39	2807.7000
559.73	2825.3000
560.08	2816.3999
560.42	2836.4500
560.76	2830.3501
561.10	2843.7000
561.44	2831.8000
561.78	2858.7500
562.13	2870.8501
562.47	2849.6001
562.81	2874.7500
563.15	2872.8999
563.49	2877.4500
563.83	2896.1499
564.17	2892.7000
564.52	2891.2000
564.86	2908.3000
565.20	2898.0000
565.54	2906.1499
565.88	2910.9500
566.22	2926.1001
566.56	2904.5000
566.90	2924.1499
567.24	2933.5000
567.59	2926.1499
567.93	2935.1499
568.27	2950.6499
568.61	2968.3000
568.95	2941.7000
569.29	2944.8000
569.63	2986.6001
569.97	2970.0000
570.31	2928.1499
570.65	2947.6001
570.99	2968.0500
571.33	2982.8501
571.67	2960.3000
572.01	2967.3999
572.35	2991.2500
572.69	2992.2000
573.03	2994.4500
573.37	2991.7500
573.71	2980.1001
574.05	2964.4500
574.39	2975.5000
574.73	2997.1001
575.07	2978.0500
575.41	2982.6499
575.75	2995.3000
576.09	3021.3000
576.43	3009.9500
576.77	3001.8999
577.11	2988.6499
577.45	3001.8999
577.79	2994.0500
578.13	3011.7500
578.47	2982.3000
578.81	2989.6001
579.15	2995.8501
579.49	3027.0000
579.83	3023.7500
580.17	3028.7500
580.51	3013.0500
580.85	3022.3999
581.19	3019.5000
581.53	3003.7500
581.87	3014.8501
582.20	3025.8999
582.54	3026.3000
582.88	3018.1001
583.22	3003.1001
583.56	2990.0000
583.90	3030.1001
584.24	3025.0500
584.58	3022.1001
584.92	3036.7500
585.25	3041.8999
585.59	3031.2000
585.93	3041.8501
586.27	3055.7500
586.61	3015.6499
586.95	3048.6499
587.29	3058.0500
587.62	3034.2500
587.96	3046.2000
588.30	3051.9500
588.64	3042.9500
588.98	3046.9500
589.31	3060.1499
589.65	3045.2000
589.99	3030.2500
590.33	3061.0500
590.67	3058.8999
591.01	3063.5500
591.34	3072.6499
591.68	3072.6499
592.02	3071.7000
592.36	3069.6499
592.69	3068.8501
593.03	3082.2000
593.37	3082.6499
593.71	3077.3999
594.04	3072.9500
594.38	3077.3000
594.72	3097.4500
595.06	3084.0500
595.39	3085.3000
595.73	3092.6499
596.07	3118.6001
