OOIBase32 Version 1.0.0.8 Data File
++++++++++++++++++++++++++++++++++++
Date: Monday, January 21, 1980, 02:20:31
User: Valued Ocean Optics Customer
Spectrometer Serial Number: Unknown
Spectrometer Channel: Master
Integration Time (msec): 7
Spectra Averaged: 20
Boxcar Smoothing: 0
Correct for Electrical Dark: Disabled
Time Normalized: Disabled
Dual-beam Reference: Disabled
Reference Channel: Master
>>>>>Begin Spectral Data<<<<<
179.00	0.0000
179.38	0.0000
179.75	73.0000
180.13	72.2000
180.51	73.0500
180.88	74.6000
181.26	74.0000
181.64	72.8000
182.02	73.1000
182.39	74.2000
182.77	73.2500
183.15	73.3500
183.52	73.5000
183.90	73.7500
184.28	73.2500
184.65	74.2000
185.03	73.3500
185.41	73.8000
185.78	73.7000
186.16	73.2000
186.53	74.5500
186.91	73.9500
187.29	72.9500
187.66	73.9500
188.04	74.3500
188.42	74.8500
188.79	75.7500
189.17	77.4500
189.55	77.2000
189.92	76.9000
190.30	76.8500
190.67	76.1000
191.05	77.7000
191.43	77.6000
191.80	76.4000
192.18	76.5000
192.56	76.9500
192.93	76.7000
193.31	76.9500
193.68	77.5000
194.06	77.1000
194.44	76.4500
194.81	77.2000
195.19	76.8000
195.56	77.5000
195.94	77.0500
196.32	77.1500
196.69	76.8000
197.07	77.2500
197.44	76.9000
197.82	76.9000
198.19	76.3000
198.57	76.1500
198.95	76.7000
199.32	77.2500
199.70	75.8500
200.07	76.5500
200.45	76.6000
200.82	77.4500
201.20	77.4000
201.57	77.6000
201.95	76.3000
202.33	76.4000
202.70	76.5500
203.08	77.4500
203.45	77.0500
203.83	76.6500
204.20	77.6500
204.58	76.4500
204.95	77.2500
205.33	77.8500
205.70	76.8000
206.08	76.7000
206.45	77.4000
206.83	75.9500
207.20	77.3500
207.58	77.8000
207.95	76.9500
208.33	77.3500
208.70	77.5500
209.08	77.8500
209.45	77.3500
209.83	76.9000
210.20	78.4500
210.58	77.9500
210.95	77.2000
211.33	78.3000
211.70	77.3500
212.08	77.9000
212.45	76.9500
212.83	77.6000
213.20	77.5500
213.58	76.6500
213.95	77.9000
214.33	78.6000
214.70	76.8500
215.07	78.2000
215.45	76.8500
215.82	77.3000
216.20	77.3500
216.57	76.9500
216.95	76.6500
217.32	77.4500
217.70	76.9000
218.07	76.5500
218.44	76.9000
218.82	76.3500
219.19	76.8000
219.57	77.1000
219.94	77.2000
220.32	76.9000
220.69	77.4000
221.06	77.6000
221.44	77.2000
221.81	77.6000
222.19	78.1000
222.56	77.0500
222.93	76.9000
223.31	78.1000
223.68	77.8500
224.06	77.6000
224.43	78.6000
224.80	78.0500
225.18	78.1000
225.55	78.4000
225.92	77.3500
226.30	77.7000
226.67	77.6000
227.05	77.8000
227.42	78.4000
227.79	77.6000
228.17	78.1000
228.54	77.5500
228.91	77.6000
229.29	76.9000
229.66	78.4000
230.03	77.1500
230.41	77.0500
230.78	77.2500
231.15	77.0500
231.53	76.7500
231.90	77.6500
232.27	78.3500
232.65	78.0000
233.02	77.0500
233.39	77.6000
233.77	77.7000
234.14	77.2500
234.51	77.2500
234.89	78.6000
235.26	77.1500
235.63	78.0000
236.01	78.2000
236.38	77.9500
236.75	77.0500
237.12	77.2000
237.50	77.6500
237.87	78.6000
238.24	76.7500
238.62	77.7000
238.99	78.0500
239.36	77.8500
239.73	77.6500
240.11	77.9000
240.48	77.8500
240.85	76.8000
241.23	77.0000
241.60	77.8500
241.97	78.0500
242.34	77.1000
242.72	78.3500
243.09	77.4000
243.46	77.9000
243.83	77.9500
244.21	77.6500
244.58	77.1000
244.95	78.2500
245.32	77.6000
245.70	77.9500
246.07	77.3500
246.44	78.1000
246.81	77.9000
247.18	79.8000
247.56	79.5000
247.93	78.6500
248.30	78.5500
248.67	77.4000
249.04	78.5500
249.42	78.6000
249.79	77.3500
250.16	77.0500
250.53	78.8000
250.90	79.2000
251.28	78.2000
251.65	77.6500
252.02	78.0000
252.39	77.5000
252.76	78.0500
253.14	77.7500
253.51	78.0500
253.88	78.5500
254.25	78.8500
254.62	78.2500
254.99	78.8500
255.37	77.4000
255.74	78.3500
256.11	79.0500
256.48	79.0000
256.85	78.9500
257.22	78.1000
257.59	78.1500
257.97	78.7000
258.34	79.0500
258.71	78.8500
259.08	78.0000
259.45	77.1000
259.82	78.3000
260.19	78.6000
260.56	78.1000
260.94	78.8000
261.31	78.6500
261.68	78.2500
262.05	79.1000
262.42	79.2000
262.79	77.2500
263.16	79.3500
263.53	77.9500
263.90	78.9500
264.28	77.4500
264.65	78.3000
265.02	78.7000
265.39	79.1500
265.76	77.8500
266.13	77.9000
266.50	78.6500
266.87	78.3000
267.24	77.8000
267.61	78.7000
267.98	78.1500
268.35	78.3000
268.72	78.9000
269.09	78.7000
269.46	78.4000
269.84	78.5500
270.21	78.5000
270.58	77.7500
270.95	78.2500
271.32	76.8500
271.69	78.0000
272.06	78.3000
272.43	78.3500
272.80	78.2000
273.17	78.7500
273.54	78.7500
273.91	78.4000
274.28	77.0500
274.65	77.8000
275.02	77.8500
275.39	78.3000
275.76	78.7000
276.13	78.0000
276.50	79.4500
276.87	78.1000
277.24	79.2500
277.61	78.2500
277.98	77.7500
278.35	77.9000
278.72	78.4500
279.09	78.3000
279.46	77.4000
279.83	77.3000
280.20	78.9500
280.57	77.2000
280.94	78.0500
281.31	78.6000
281.67	77.9500
282.04	78.9500
282.41	78.4000
282.78	77.8500
283.15	78.6500
283.52	78.6000
283.89	78.2000
284.26	79.4500
284.63	77.8500
285.00	77.4500
285.37	78.5500
285.74	78.5500
286.11	78.9000
286.48	79.5500
286.85	78.6000
287.21	77.1000
287.58	78.5500
287.95	78.1500
288.32	79.3500
288.69	78.4500
289.06	79.1000
289.43	79.4000
289.80	78.9000
290.17	79.1500
290.54	79.1500
290.90	78.9500
291.27	77.8500
291.64	78.6500
292.01	79.5000
292.38	78.6000
292.75	78.8500
293.12	78.1000
293.48	78.1000
293.85	78.2500
294.22	78.6000
294.59	79.2000
294.96	78.4500
295.33	78.3500
295.70	79.3500
296.06	79.2000
296.43	78.2500
296.80	77.6000
297.17	78.4500
297.54	78.6000
297.91	79.4000
298.27	79.1000
298.64	79.9500
299.01	78.5000
299.38	79.9000
299.75	79.3000
300.11	78.1500
300.48	78.8500
300.85	78.5500
301.22	78.1500
301.59	78.6500
301.95	78.2500
302.32	79.2000
302.69	78.2000
303.06	78.8000
303.43	78.6000
303.79	78.2000
304.16	77.9500
304.53	80.1000
304.90	79.2000
305.26	77.8000
305.63	78.5500
306.00	78.9500
306.37	79.7000
306.73	79.5000
307.10	79.0500
307.47	79.3500
307.84	78.3500
308.20	79.6000
308.57	79.5000
308.94	78.5500
309.31	80.1000
309.67	79.3000
310.04	78.8500
310.41	79.4000
310.77	79.1500
311.14	78.1500
311.51	79.0500
311.88	79.7000
312.24	78.8500
312.61	79.9000
312.98	79.8000
313.34	79.3500
313.71	78.9000
314.08	79.3000
314.44	78.6500
314.81	78.3500
315.18	79.1000
315.55	79.2000
315.91	79.5500
316.28	78.9500
316.65	79.2500
317.01	79.4000
317.38	79.3500
317.75	79.5500
318.11	79.5500
318.48	78.5000
318.84	78.7500
319.21	79.1000
319.58	79.3000
319.94	80.5000
320.31	79.0000
320.68	79.6000
321.04	79.5000
321.41	78.8000
321.78	79.4500
322.14	78.7500
322.51	79.0000
322.87	78.5000
323.24	79.7000
323.61	80.3000
323.97	79.2500
324.34	79.5000
324.70	79.8500
325.07	79.4000
325.44	79.0000
325.80	79.0000
326.17	79.3500
326.53	79.9500
326.90	79.5500
327.27	79.0000
327.63	78.8500
328.00	79.3500
328.36	79.1500
328.73	78.4500
329.09	78.5000
329.46	79.8500
329.83	78.9000
330.19	79.6500
330.56	79.3500
330.92	78.7000
331.29	79.3500
331.65	79.7500
332.02	78.9500
332.38	80.1500
332.75	79.0000
333.11	79.4000
333.48	79.0000
333.84	78.2000
334.21	79.4500
334.58	78.7500
334.94	79.6500
335.31	79.3500
335.67	79.3500
336.04	79.1500
336.40	79.8500
336.77	80.0500
337.13	80.5000
337.50	78.9000
337.86	79.3500
338.22	79.8500
338.59	80.4500
338.95	79.4500
339.32	79.4500
339.68	79.7000
340.05	79.8500
340.41	79.4000
340.78	80.5500
341.14	79.6500
341.51	79.6000
341.87	79.9500
342.24	79.2500
342.60	80.4500
342.96	80.2000
343.33	79.9000
343.69	81.4000
344.06	81.1000
344.42	80.4000
344.79	79.1000
345.15	79.5000
345.51	79.7000
345.88	79.6000
346.24	80.6500
346.61	80.1500
346.97	81.2000
347.34	81.0000
347.70	80.7500
348.06	80.1000
348.43	80.7500
348.79	79.9500
349.16	79.3000
349.52	80.4000
349.88	80.9500
350.25	80.5000
350.61	80.9500
350.97	81.0000
351.34	81.3000
351.70	80.8500
352.07	81.0500
352.43	80.5000
352.79	80.4500
353.16	81.7000
353.52	80.9000
353.88	81.4500
354.25	81.1500
354.61	80.0500
354.97	80.9500
355.34	81.2000
355.70	79.9500
356.06	80.0500
356.43	80.3500
356.79	81.0500
357.15	81.5500
357.52	82.0000
357.88	81.5500
358.24	81.0500
358.60	82.7500
358.97	82.7500
359.33	81.7000
359.69	81.6000
360.06	81.9500
360.42	81.9500
360.78	82.1000
361.14	82.4500
361.51	82.2000
361.87	82.3000
362.23	83.0000
362.60	82.8000
362.96	83.3500
363.32	83.8000
363.68	85.1500
364.05	82.9500
364.41	82.8500
364.77	83.9500
365.13	82.9000
365.50	84.0000
365.86	85.3500
366.22	84.8500
366.58	85.0500
366.95	84.6500
367.31	85.2000
367.67	85.8500
368.03	85.2500
368.39	86.0500
368.76	86.3000
369.12	86.4500
369.48	86.7500
369.84	87.2500
370.20	87.6500
370.57	86.9500
370.93	87.8500
371.29	87.2000
371.65	87.8000
372.01	88.3500
372.38	88.6500
372.74	88.8500
373.10	88.9500
373.46	89.3500
373.82	90.6500
374.18	89.8000
374.55	90.0000
374.91	91.3500
375.27	91.8000
375.63	92.7500
375.99	91.6500
376.35	92.6000
376.71	93.7500
377.08	93.3500
377.44	94.4000
377.80	94.5000
378.16	95.3000
378.52	94.7500
378.88	96.3000
379.24	97.4500
379.60	97.4000
379.97	99.3500
380.33	99.6500
380.69	100.0500
381.05	99.8000
381.41	100.8000
381.77	102.0000
382.13	101.6500
382.49	102.9000
382.85	103.3500
383.21	104.8000
383.57	102.8000
383.94	106.7000
384.30	106.6500
384.66	107.9500
385.02	107.7500
385.38	107.9500
385.74	108.9000
386.10	110.1500
386.46	112.8000
386.82	111.9500
387.18	112.4500
387.54	112.7500
387.90	113.3000
388.26	115.5000
388.62	117.2000
388.98	117.1500
389.34	117.9000
389.70	118.8500
390.06	115.8000
390.42	117.6500
390.78	123.4000
391.14	124.1000
391.50	122.8500
391.86	126.7500
392.22	127.3000
392.58	127.2500
392.94	122.9500
393.30	127.8500
393.66	129.4000
394.02	131.6500
394.38	128.0000
394.74	130.1500
395.10	132.2500
395.46	137.2000
395.82	135.7500
396.18	134.0000
396.54	139.8000
396.90	141.7000
397.26	140.9000
397.62	142.2500
397.98	147.6000
398.34	142.3500
398.70	144.2000
399.05	141.5500
399.41	141.9000
399.77	147.2000
400.13	151.2500
400.49	153.7500
400.85	156.6500
401.21	150.8000
401.57	161.6500
401.93	160.5000
402.29	157.2500
402.65	160.2000
403.00	165.3000
403.36	169.4500
403.72	165.4500
404.08	176.9000
404.44	167.0000
404.80	168.1000
405.16	176.0500
405.52	182.6000
405.87	184.1500
406.23	187.5500
406.59	176.9000
406.95	179.0500
407.31	183.5000
407.67	184.6000
408.03	184.4000
408.38	192.8000
408.74	201.7000
409.10	203.3000
409.46	193.5500
409.82	200.4000
410.17	199.8000
410.53	195.2000
410.89	202.2500
411.25	188.2500
411.61	199.0500
411.97	208.6500
412.32	206.4500
412.68	213.3500
413.04	208.7000
413.40	191.5000
413.75	206.4000
414.11	211.6000
414.47	209.7500
414.83	224.2000
415.19	217.7500
415.54	208.1500
415.90	222.6500
416.26	219.5000
416.62	228.5000
416.97	214.0000
417.33	229.9500
417.69	234.6500
418.05	228.0000
418.40	219.1000
418.76	230.5000
419.12	243.6500
419.48	239.2000
419.83	249.0000
420.19	226.0500
420.55	232.2000
420.90	253.8500
421.26	243.2500
421.62	237.9500
421.98	253.6000
422.33	260.9500
422.69	266.5500
423.05	269.5500
423.40	244.3000
423.76	238.7500
424.12	261.7000
424.47	262.4000
424.83	263.4500
425.19	262.8000
425.54	260.6000
425.90	273.4500
426.26	282.9500
426.61	287.3500
426.97	247.7000
427.33	280.8000
427.68	278.1500
428.04	296.4500
428.40	309.5500
428.75	317.8000
429.11	289.3000
429.47	318.9000
429.82	317.4500
430.18	311.3000
430.53	299.2000
430.89	306.1000
431.25	312.0500
431.60	321.2500
431.96	315.0000
432.31	309.7000
432.67	333.3000
433.03	337.9500
433.38	326.3000
433.74	338.2500
434.09	334.0000
434.45	324.6500
434.81	319.8500
435.16	344.6500
435.52	324.4000
435.87	315.4000
436.23	319.5500
436.58	328.6500
436.94	345.1000
437.30	345.6500
437.65	363.0000
438.01	352.6000
438.36	356.6000
438.72	352.0500
439.07	347.5000
439.43	353.2500
439.78	379.1500
440.14	398.0500
440.49	363.4000
440.85	363.1500
441.20	381.9000
441.56	376.8500
441.91	407.0500
442.27	376.5000
442.62	381.2000
442.98	392.6500
443.33	381.3500
443.69	389.5000
444.04	385.7500
444.40	370.9500
444.75	406.0500
445.11	414.1000
445.46	425.2000
445.82	421.3000
446.17	397.5500
446.53	422.4500
446.88	462.3000
447.23	393.7000
447.59	394.1000
447.94	397.9000
448.30	425.5500
448.65	415.6500
449.01	442.0000
449.36	439.8000
449.72	474.1500
450.07	490.3000
450.42	477.1000
450.78	454.3000
451.13	476.4000
451.49	458.3000
451.84	446.0000
452.19	449.4000
452.55	474.5000
452.90	479.6000
453.26	509.1000
453.61	530.3500
453.96	452.2000
454.32	500.3000
454.67	503.2000
455.02	466.3500
455.38	488.8000
455.73	487.1000
456.09	528.1000
456.44	531.2500
456.79	520.3000
457.15	518.8000
457.50	495.8000
457.85	514.9000
458.21	510.5000
458.56	535.5000
458.91	524.4000
459.27	495.9000
459.62	515.7500
459.97	518.8000
460.32	541.3000
460.68	542.3500
461.03	535.2500
461.38	550.6000
461.74	601.2500
462.09	582.6000
462.44	553.1500
462.80	550.4000
463.15	558.4500
463.50	559.1500
463.85	599.0000
464.21	579.5000
464.56	609.7000
464.91	567.1000
465.26	587.2500
465.62	587.6000
465.97	629.5000
466.32	627.0500
466.67	624.5500
467.03	627.9500
467.38	637.5500
467.73	645.9000
468.08	662.9500
468.44	669.7000
468.79	665.8500
469.14	640.3500
469.49	675.2500
469.85	694.1000
470.20	751.0000
470.55	747.9500
470.90	755.9500
471.25	718.2000
471.61	741.8500
471.96	748.6500
472.31	770.3500
472.66	774.8500
473.01	796.9500
473.36	820.3500
473.72	810.3000
474.07	837.1000
474.42	837.9000
474.77	845.7000
475.12	870.3500
475.47	895.8000
475.83	899.1000
476.18	896.9000
476.53	886.2000
476.88	935.2500
477.23	947.1500
477.58	942.5500
477.93	960.8000
478.28	954.6500
478.64	971.7500
478.99	998.6000
479.34	1012.3000
479.69	1032.3000
480.04	1053.5500
480.39	1061.3000
480.74	1040.0000
481.09	1106.4000
481.44	1108.4000
481.79	1101.1000
482.15	1114.1000
482.50	1136.3500
482.85	1136.8000
483.20	1177.7500
483.55	1176.5500
483.90	1199.9500
484.25	1189.4500
484.60	1191.1500
484.95	1221.2500
485.30	1227.6500
485.65	1245.1000
486.00	1258.9000
486.35	1242.6500
486.70	1254.0500
487.05	1302.2500
487.40	1304.6500
487.75	1315.6500
488.10	1324.1500
488.45	1316.5500
488.80	1333.0000
489.15	1361.8500
489.50	1366.9500
489.85	1371.7000
490.20	1367.8000
490.55	1396.5000
490.90	1406.6000
491.25	1415.0500
491.60	1406.3000
491.95	1411.4000
492.30	1429.0000
492.65	1446.4000
493.00	1445.4500
493.35	1451.4000
493.70	1465.8500
494.05	1475.0000
494.40	1496.4000
494.75	1501.2500
495.10	1493.5500
495.45	1501.5500
495.80	1515.3000
496.15	1530.8500
496.50	1518.5000
496.84	1524.3500
497.19	1526.2500
497.54	1546.4000
497.89	1554.2000
498.24	1550.0500
498.59	1575.6500
498.94	1561.9000
499.29	1572.5000
499.64	1582.9000
499.99	1594.2000
500.33	1603.1500
500.68	1606.7500
501.03	1611.7500
501.38	1619.3000
501.73	1636.5000
502.08	1631.1500
502.43	1652.5000
502.77	1656.7000
503.12	1665.8000
503.47	1665.8500
503.82	1684.4000
504.17	1692.9500
504.52	1701.9000
504.86	1706.6500
505.21	1736.2500
505.56	1733.0000
505.91	1739.2500
506.26	1739.9500
506.61	1763.1500
506.95	1762.3500
507.30	1771.1500
507.65	1798.8000
508.00	1793.9000
508.35	1801.9000
508.69	1806.2000
509.04	1826.7000
509.39	1817.2000
509.74	1826.8500
510.08	1836.2500
510.43	1858.2500
510.78	1864.8000
511.13	1871.9000
511.47	1882.8500
511.82	1891.2000
512.17	1888.0000
512.52	1913.6500
512.86	1928.8000
513.21	1941.1500
513.56	1946.8000
513.91	1967.8000
514.25	1964.5000
514.60	1979.0000
514.95	1982.0500
515.30	1989.5500
515.64	1990.0000
515.99	2027.1000
516.34	2032.2500
516.68	2048.8999
517.03	2052.8999
517.38	2057.9500
517.72	2087.2000
518.07	2078.8000
518.42	2090.4500
518.76	2108.5000
519.11	2115.8999
519.46	2126.3501
519.80	2120.6001
520.15	2134.0000
520.50	2154.0000
520.84	2155.5500
521.19	2170.0000
521.54	2179.1001
521.88	2169.7500
522.23	2202.8999
522.58	2194.6001
522.92	2202.0500
523.27	2220.1001
523.61	2224.2500
523.96	2222.9500
524.31	2252.8501
524.65	2262.2500
525.00	2252.1499
525.34	2237.0500
525.69	2250.2500
526.04	2275.8999
526.38	2285.8999
526.73	2288.3501
527.07	2309.1499
527.42	2304.3000
527.76	2320.8000
528.11	2330.3501
528.46	2319.3999
528.80	2321.0500
529.15	2316.0500
529.49	2315.8501
529.84	2331.2000
530.18	2342.3501
530.53	2358.8000
530.87	2353.4500
531.22	2350.5500
531.56	2357.1001
531.91	2358.1499
532.25	2360.8000
532.60	2360.9500
532.94	2371.8501
533.29	2368.0500
533.63	2365.0000
533.98	2367.3501
534.32	2384.9500
534.67	2412.0500
535.01	2417.6001
535.36	2402.8000
535.70	2424.9500
536.05	2428.3999
536.39	2443.5000
536.74	2413.5000
537.08	2399.6499
537.43	2403.2500
537.77	2431.3501
538.12	2456.5500
538.46	2453.9500
538.80	2461.2000
539.15	2439.6499
539.49	2462.1499
539.84	2488.1001
540.18	2483.5000
540.53	2473.1001
540.87	2477.8000
541.21	2505.1499
541.56	2496.6001
541.90	2514.1499
542.25	2498.9500
542.59	2494.8999
542.93	2524.8999
543.28	2512.5500
543.62	2528.0000
543.97	2534.7000
544.31	2541.8000
544.65	2546.7500
545.00	2557.8000
545.34	2564.5000
545.68	2565.8999
546.03	2555.4500
546.37	2581.3501
546.71	2582.2000
547.06	2586.8501
547.40	2593.8501
547.74	2626.1499
548.09	2611.8000
548.43	2612.0000
548.77	2624.7000
549.12	2620.2500
549.46	2613.8501
549.80	2635.5000
550.15	2656.9500
550.49	2651.3000
550.83	2657.8000
551.17	2669.5000
551.52	2664.8999
551.86	2670.6001
552.20	2677.8000
552.55	2704.7500
552.89	2701.8999
553.23	2716.9500
553.57	2724.3000
553.92	2718.3501
554.26	2738.7500
554.60	2723.8501
554.94	2732.7000
555.29	2752.2000
555.63	2759.6001
555.97	2774.6001
556.31	2766.1001
556.66	2782.3000
557.00	2773.5500
557.34	2790.5000
557.68	2817.3000
558.02	2810.2500
558.37	2818.3999
558.71	2822.2000
559.05	2813.8999
559.39	2826.8000
559.73	2851.1001
560.08	2840.4500
560.42	2858.6499
560.76	2858.8501
561.10	2867.0500
561.44	2856.8999
561.78	2885.2500
562.13	2891.3501
562.47	2874.2500
562.81	2893.8000
563.15	2894.4500
563.49	2901.1499
563.83	2921.3999
564.17	2919.2000
564.52	2917.2500
564.86	2923.2000
565.20	2929.0000
565.54	2925.5000
565.88	2930.3000
566.22	2943.8501
566.56	2931.4500
566.90	2951.0500
567.24	2959.3501
567.59	2950.5500
567.93	2960.7500
568.27	2978.1499
568.61	2990.5500
568.95	2970.8501
569.29	2965.7000
569.63	3002.6499
569.97	2994.3000
570.31	2949.7000
570.65	2980.8000
570.99	2999.5000
571.33	3005.2500
571.67	2974.6001
572.01	2994.2000
572.35	3008.6499
572.69	3012.8000
573.03	3016.3501
573.37	3010.2500
573.71	3008.0000
574.05	2989.2000
574.39	2996.1001
574.73	3014.3999
575.07	2994.3501
575.41	3011.2500
575.75	3010.2000
576.09	3039.8000
576.43	3026.2500
576.77	3021.8999
577.11	3009.6001
577.45	3028.3999
577.79	3011.0000
578.13	3032.5000
578.47	2998.1001
578.81	3000.8501
579.15	3018.5500
579.49	3052.8999
579.83	3045.3000
580.17	3050.1001
580.51	3038.1001
580.85	3045.9500
581.19	3038.7500
581.53	3020.2500
581.87	3036.8999
582.20	3041.6499
582.54	3034.3000
582.88	3036.7500
583.22	3022.2000
583.56	3013.3999
583.90	3049.1499
584.24	3048.8000
584.58	3045.1001
584.92	3058.0000
585.25	3056.7000
585.59	3042.7000
585.93	3058.6499
586.27	3070.0500
586.61	3040.6001
586.95	3064.9500
587.29	3070.3501
587.62	3051.2000
587.96	3062.5500
588.30	3069.1001
588.64	3057.8501
588.98	3064.6499
589.31	3076.2500
589.65	3061.3000
589.99	3045.8000
590.33	3074.5500
590.67	3072.5000
591.01	3072.6001
591.34	3092.8999
591.68	3088.1499
592.02	3091.8000
592.36	3084.6499
592.69	3082.1001
593.03	3094.2500
593.37	3091.7000
593.71	3090.0500
594.04	3090.6001
594.38	3092.1001
594.72	3110.2000
595.06	3098.0500
595.39	3095.4500
595.73	3112.5000
