OOIBase32 Version 1.0.0.8 Data File
++++++++++++++++++++++++++++++++++++
Date: Monday, January 21, 1980, 02:23:44
User: Valued Ocean Optics Customer
Spectrometer Serial Number: Unknown
Spectrometer Channel: Master
Integration Time (msec): 7
Spectra Averaged: 20
Boxcar Smoothing: 0
Correct for Electrical Dark: Disabled
Time Normalized: Disabled
Dual-beam Reference: Disabled
Reference Channel: Master
>>>>>Begin Spectral Data<<<<<
179.00	0.0000
179.38	0.0000
179.75	73.0500
180.13	74.4500
180.51	72.3500
180.88	73.5000
181.26	72.9000
181.64	73.4500
182.02	74.7000
182.39	73.3500
182.77	73.9000
183.15	74.1500
183.52	74.0000
183.90	74.5500
184.28	72.9000
184.65	73.5000
185.03	74.3500
185.41	74.1500
185.78	73.3500
186.16	73.1000
186.53	73.1500
186.91	74.1000
187.29	74.1000
187.66	74.1500
188.04	74.2000
188.42	75.7000
188.79	74.9500
189.17	74.8000
189.55	74.9500
189.92	74.6500
190.30	73.6000
190.67	73.8000
191.05	74.8500
191.43	74.9500
191.80	73.8500
192.18	74.3500
192.56	73.7000
192.93	74.1000
193.31	74.3000
193.68	74.4000
194.06	73.2000
194.44	74.8500
194.81	75.3000
195.19	74.4000
195.56	75.3500
195.94	74.6500
196.32	74.6000
196.69	75.2500
197.07	74.3500
197.44	74.7000
197.82	74.7000
198.19	74.5500
198.57	73.6000
198.95	73.0500
199.32	76.0000
199.70	74.8000
200.07	74.1000
200.45	75.6000
200.82	74.3000
201.20	74.7000
201.57	73.6000
201.95	74.2500
202.33	74.8000
202.70	75.3500
203.08	74.5500
203.45	75.0000
203.83	73.2000
204.20	73.7000
204.58	74.4000
204.95	73.3000
205.33	74.3000
205.70	74.7000
206.08	73.8000
206.45	73.9000
206.83	75.4000
207.20	75.4000
207.58	74.6500
207.95	74.5000
208.33	75.0000
208.70	75.0000
209.08	74.5000
209.45	74.5000
209.83	74.3000
210.20	74.6500
210.58	74.1500
210.95	74.6500
211.33	74.7500
211.70	74.7000
212.08	74.6500
212.45	75.1500
212.83	73.7500
213.20	73.9000
213.58	74.0500
213.95	75.3000
214.33	73.7000
214.70	74.6500
215.07	74.3500
215.45	75.0000
215.82	74.4500
216.20	73.6000
216.57	74.4500
216.95	74.2500
217.32	74.8500
217.70	74.9000
218.07	75.3500
218.44	74.6000
218.82	75.5500
219.19	75.5000
219.57	75.2500
219.94	74.7000
220.32	74.3500
220.69	73.7500
221.06	73.8000
221.44	75.2000
221.81	75.3000
222.19	75.7000
222.56	75.2500
222.93	75.6000
223.31	75.1000
223.68	75.3000
224.06	74.9500
224.43	76.3500
224.80	73.9500
225.18	75.3000
225.55	73.8000
225.92	74.3500
226.30	75.0000
226.67	75.7500
227.05	74.9000
227.42	74.4500
227.79	75.8000
228.17	75.0500
228.54	74.1500
228.91	74.6500
229.29	74.6000
229.66	75.4500
230.03	73.9000
230.41	74.9000
230.78	74.4500
231.15	74.9500
231.53	74.8000
231.90	74.6500
232.27	74.8500
232.65	74.8500
233.02	74.5000
233.39	73.9500
233.77	74.6500
234.14	74.8500
234.51	74.2000
234.89	75.1500
235.26	74.8000
235.63	73.7000
236.01	74.2500
236.38	75.6000
236.75	74.9500
237.12	74.4000
237.50	75.3500
237.87	75.9000
238.24	75.2000
238.62	75.5000
238.99	74.4000
239.36	74.4500
239.73	73.3500
240.11	75.2500
240.48	75.3000
240.85	74.3000
241.23	73.8500
241.60	74.5000
241.97	75.3000
242.34	74.4000
242.72	75.8500
243.09	74.3000
243.46	74.7000
243.83	74.1000
244.21	76.0000
244.58	75.0500
244.95	74.4000
245.32	74.8000
245.70	74.8000
246.07	74.0500
246.44	74.9500
246.81	74.9500
247.18	74.3000
247.56	75.7500
247.93	75.6000
248.30	75.2500
248.67	74.3000
249.04	75.1000
249.42	74.3500
249.79	74.7500
250.16	75.0000
250.53	73.9500
250.90	74.9500
251.28	74.1000
251.65	74.2000
252.02	74.9500
252.39	74.6500
252.76	74.3500
253.14	75.0500
253.51	75.5500
253.88	74.6000
254.25	74.6500
254.62	74.4500
254.99	74.7500
255.37	75.1000
255.74	74.3500
256.11	75.2000
256.48	74.7500
256.85	74.2000
257.22	75.2500
257.59	74.7000
257.97	74.8500
258.34	75.0000
258.71	75.3000
259.08	75.4000
259.45	74.4500
259.82	74.0000
260.19	74.8500
260.56	75.0500
260.94	74.7500
261.31	74.9000
261.68	75.2500
262.05	74.1500
262.42	74.4000
262.79	75.0000
263.16	74.7000
263.53	74.1000
263.90	74.7500
264.28	75.7000
264.65	75.2500
265.02	74.6500
265.39	75.0000
265.76	73.9000
266.13	74.4000
266.50	74.4500
266.87	75.3500
267.24	74.8000
267.61	74.8000
267.98	75.2000
268.35	75.9500
268.72	75.2500
269.09	75.8500
269.46	75.7500
269.84	75.4000
270.21	75.1500
270.58	76.0000
270.95	74.8000
271.32	75.8000
271.69	74.9500
272.06	73.9000
272.43	74.3000
272.80	74.4500
273.17	74.6500
273.54	75.2500
273.91	75.0500
274.28	75.6500
274.65	74.6500
275.02	75.1000
275.39	74.0000
275.76	75.1500
276.13	74.3500
276.50	75.2000
276.87	74.0000
277.24	75.7500
277.61	75.2500
277.98	74.9000
278.35	74.5000
278.72	75.2500
279.09	74.7000
279.46	75.2000
279.83	75.5500
280.20	75.0500
280.57	75.0000
280.94	74.6000
281.31	75.9000
281.67	74.7000
282.04	74.8500
282.41	75.2500
282.78	74.5500
283.15	74.8500
283.52	76.1500
283.89	75.4500
284.26	75.4000
284.63	75.3000
285.00	73.8500
285.37	74.4000
285.74	74.4500
286.11	74.9000
286.48	73.4500
286.85	74.3500
287.21	74.5000
287.58	74.6500
287.95	75.2500
288.32	74.3500
288.69	74.6500
289.06	74.8000
289.43	73.8500
289.80	74.3000
290.17	74.8500
290.54	74.9000
290.90	75.8000
291.27	75.6000
291.64	75.5500
292.01	75.4000
292.38	74.4000
292.75	76.1500
293.12	74.4000
293.48	74.3500
293.85	74.7500
294.22	74.7000
294.59	74.7500
294.96	74.3500
295.33	74.3500
295.70	74.4000
296.06	75.3500
296.43	74.2500
296.80	75.0000
297.17	74.7500
297.54	74.4500
297.91	74.7000
298.27	74.4000
298.64	75.2000
299.01	75.3000
299.38	74.6500
299.75	74.6500
300.11	75.0000
300.48	74.2000
300.85	75.8000
301.22	75.1000
301.59	74.8000
301.95	74.8500
302.32	75.7000
302.69	74.9000
303.06	75.0000
303.43	74.3000
303.79	75.4500
304.16	74.9000
304.53	75.4500
304.90	75.3000
305.26	73.9000
305.63	75.5500
306.00	74.8500
306.37	74.7500
306.73	74.9000
307.10	74.4000
307.47	75.3000
307.84	75.4500
308.20	74.9000
308.57	74.9000
308.94	75.4000
309.31	75.7500
309.67	75.8000
310.04	75.5500
310.41	74.1500
310.77	74.7000
311.14	74.6000
311.51	74.4000
311.88	74.8000
312.24	74.8500
312.61	74.9500
312.98	74.3500
313.34	74.0500
313.71	74.0000
314.08	74.9000
314.44	74.8500
314.81	75.8000
315.18	74.7500
315.55	74.1000
315.91	74.6500
316.28	75.3000
316.65	74.7000
317.01	75.2500
317.38	74.5500
317.75	75.4000
318.11	74.6500
318.48	75.4000
318.84	74.3000
319.21	75.4500
319.58	74.8500
319.94	75.1500
320.31	74.5000
320.68	75.2500
321.04	75.2500
321.41	75.7500
321.78	75.0500
322.14	75.5000
322.51	75.7500
322.87	75.0000
323.24	74.5000
323.61	76.0000
323.97	74.5000
324.34	75.4500
324.70	75.5000
325.07	76.0000
325.44	76.7500
325.80	76.4000
326.17	75.5000
326.53	74.9500
326.90	74.8000
327.27	75.4000
327.63	76.1500
328.00	74.6500
328.36	76.2000
328.73	75.4500
329.09	74.8000
329.46	75.1000
329.83	74.1500
330.19	75.6000
330.56	74.7000
330.92	74.7500
331.29	73.8500
331.65	75.0000
332.02	74.7000
332.38	74.4000
332.75	73.9500
333.11	76.0500
333.48	75.4000
333.84	74.1500
334.21	75.3500
334.58	74.5000
334.94	75.4000
335.31	74.3000
335.67	74.9000
336.04	74.4000
336.40	75.2500
336.77	74.7500
337.13	75.7000
337.50	75.3000
337.86	75.0500
338.22	75.6000
338.59	74.0500
338.95	74.4500
339.32	75.1000
339.68	75.5500
340.05	74.3000
340.41	74.7000
340.78	75.2500
341.14	75.8500
341.51	75.1500
341.87	76.0000
342.24	75.9000
342.60	74.6000
342.96	75.9500
343.33	75.1500
343.69	74.5500
344.06	74.1000
344.42	75.0500
344.79	75.1500
345.15	75.2500
345.51	74.9500
345.88	74.7500
346.24	74.8500
346.61	75.1000
346.97	76.3000
347.34	75.6500
347.70	75.8000
348.06	75.4000
348.43	74.5500
348.79	76.0000
349.16	75.0000
349.52	74.9000
349.88	76.4000
350.25	75.2500
350.61	75.6500
350.97	75.0000
351.34	75.3000
351.70	75.4500
352.07	75.1500
352.43	75.7000
352.79	75.1000
353.16	73.9000
353.52	75.8500
353.88	75.8000
354.25	75.3000
354.61	75.6000
354.97	74.8000
355.34	74.5500
355.70	76.1500
356.06	75.9000
356.43	76.1000
356.79	75.8500
357.15	75.8000
357.52	75.7500
357.88	74.9500
358.24	75.8000
358.60	76.6500
358.97	76.2500
359.33	75.9500
359.69	75.1000
360.06	76.3500
360.42	75.6500
360.78	76.6500
361.14	75.3500
361.51	76.0000
361.87	76.0500
362.23	76.0500
362.60	76.1500
362.96	76.0000
363.32	76.9500
363.68	76.7500
364.05	76.2000
364.41	75.6500
364.77	75.7000
365.13	76.1000
365.50	76.3500
365.86	76.0000
366.22	76.3500
366.58	75.8500
366.95	76.2000
367.31	76.5000
367.67	77.0000
368.03	77.1000
368.39	78.1000
368.76	77.6000
369.12	76.0500
369.48	76.7500
369.84	76.5000
370.20	77.1500
370.57	76.7000
370.93	76.8000
371.29	75.9500
371.65	77.4000
372.01	77.2500
372.38	77.4000
372.74	76.9500
373.10	77.8500
373.46	77.7500
373.82	77.4500
374.18	76.3500
374.55	76.7500
374.91	76.8000
375.27	76.7000
375.63	76.4500
375.99	78.0000
376.35	77.0500
376.71	77.6500
377.08	77.7500
377.44	77.0500
377.80	77.7500
378.16	78.3000
378.52	76.7000
378.88	77.2500
379.24	78.1000
379.60	79.1500
379.97	79.1000
380.33	78.4000
380.69	77.9500
381.05	77.4500
381.41	77.2000
381.77	78.5000
382.13	78.8000
382.49	78.1500
382.85	77.9000
383.21	79.2000
383.57	79.0500
383.94	78.3000
384.30	79.7500
384.66	78.7000
385.02	79.6000
385.38	80.1000
385.74	78.6000
386.10	79.4000
386.46	79.5000
386.82	79.6500
387.18	79.7000
387.54	79.1000
387.90	79.9000
388.26	79.6500
388.62	79.2000
388.98	79.6000
389.34	80.6000
389.70	79.1000
390.06	79.3500
390.42	80.2000
390.78	81.1000
391.14	79.9000
391.50	81.1500
391.86	82.2500
392.22	81.7500
392.58	81.3000
392.94	80.0500
393.30	81.1000
393.66	81.0500
394.02	80.0500
394.38	81.6000
394.74	80.8000
395.10	81.8000
395.46	83.0500
395.82	81.3500
396.18	82.5500
396.54	81.9000
396.90	83.0500
397.26	82.5500
397.62	81.7500
397.98	82.8500
398.34	83.1000
398.70	82.2000
399.05	82.8000
399.41	82.1500
399.77	82.2500
400.13	83.8000
400.49	82.5500
400.85	83.4500
401.21	82.6500
401.57	84.2000
401.93	84.2000
402.29	83.7000
402.65	84.2500
403.00	84.9000
403.36	85.1500
403.72	85.4000
404.08	85.7500
404.44	84.3500
404.80	84.4000
405.16	85.9000
405.52	87.0500
405.87	86.3000
406.23	86.7500
406.59	85.2000
406.95	86.6500
407.31	86.3500
407.67	87.4500
408.03	85.8500
408.38	87.8500
408.74	88.2500
409.10	88.0000
409.46	87.7000
409.82	87.9000
410.17	88.1000
410.53	87.2500
410.89	88.1500
411.25	87.0000
411.61	87.3500
411.97	89.2000
412.32	87.2500
412.68	89.4500
413.04	89.6000
413.40	87.6000
413.75	88.1500
414.11	88.3000
414.47	88.4000
414.83	90.8000
415.19	88.7500
415.54	89.7500
415.90	90.8000
416.26	89.4000
416.62	91.4000
416.97	89.0000
417.33	91.0000
417.69	91.7500
418.05	91.0000
418.40	89.8000
418.76	91.8500
419.12	93.0500
419.48	93.1000
419.83	94.2000
420.19	90.6000
420.55	91.5000
420.90	93.1500
421.26	91.7000
421.62	92.7000
421.98	94.3500
422.33	95.9000
422.69	95.2000
423.05	95.5500
423.40	92.9500
423.76	92.6000
424.12	95.4000
424.47	95.9500
424.83	96.0500
425.19	95.9000
425.54	94.8000
425.90	97.0000
426.26	98.1500
426.61	99.0500
426.97	93.6500
427.33	97.2000
427.68	97.8500
428.04	100.2500
428.40	102.6000
428.75	102.8500
429.11	100.6000
429.47	102.9000
429.82	103.1000
430.18	103.1000
430.53	101.4000
430.89	102.4500
431.25	103.5500
431.60	103.5500
431.96	103.9000
432.31	103.1500
432.67	106.4000
433.03	105.8000
433.38	104.2000
433.74	107.3500
434.09	106.8000
434.45	105.6000
434.81	105.3500
435.16	107.8000
435.52	106.5000
435.87	104.8000
436.23	106.0500
436.58	106.8500
436.94	109.9500
437.30	109.7000
437.65	112.5500
438.01	111.2500
438.36	110.7500
438.72	111.8000
439.07	109.7500
439.43	110.4500
439.78	115.5000
440.14	117.5500
440.49	114.2000
440.85	115.4000
441.20	116.4000
441.56	115.7000
441.91	121.5000
442.27	116.3500
442.62	116.5000
442.98	119.4000
443.33	117.3500
443.69	120.8000
444.04	121.7000
444.40	117.9500
444.75	122.7500
445.11	123.5000
445.46	126.7000
445.82	126.9000
446.17	121.9500
446.53	127.5000
446.88	133.4000
447.23	122.4500
447.59	124.7500
447.94	123.8000
448.30	129.4500
448.65	128.5000
449.01	132.9000
449.36	131.9000
449.72	137.9000
450.07	140.6500
450.42	137.3000
450.78	136.5000
451.13	138.3500
451.49	136.6000
451.84	134.4500
452.19	134.0500
452.55	137.9500
452.90	137.9000
453.26	143.7000
453.61	145.8500
453.96	134.4500
454.32	141.6000
454.67	140.9500
455.02	135.6000
455.38	140.0000
455.73	137.9500
456.09	142.7000
456.44	142.6500
456.79	141.3500
457.15	140.1500
457.50	136.6000
457.85	138.6500
458.21	136.5000
458.56	139.6000
458.91	137.6500
459.27	133.4000
459.62	135.3500
459.97	135.9500
460.32	138.4500
460.68	138.5500
461.03	138.0500
461.38	139.3000
461.74	145.0500
462.09	141.9500
462.44	138.4500
462.80	137.0500
463.15	138.2000
463.50	138.3000
463.85	143.6000
464.21	139.2000
464.56	144.0000
464.91	138.5000
465.26	140.9500
465.62	139.9500
465.97	144.1000
466.32	145.7000
466.67	144.3000
467.03	143.2500
467.38	144.8000
467.73	146.2000
468.08	147.9500
468.44	150.7500
468.79	149.0000
469.14	145.2000
469.49	149.2000
469.85	150.3500
470.20	157.9500
470.55	157.5500
470.90	156.3500
471.25	152.8000
471.61	155.9000
471.96	155.9000
472.31	159.4000
472.66	157.9500
473.01	159.9000
473.36	164.4500
473.72	163.8000
474.07	165.1500
474.42	165.2000
474.77	165.5000
475.12	168.2500
475.47	171.8500
475.83	173.5500
476.18	172.3000
476.53	170.4500
476.88	176.7500
477.23	177.0000
477.58	177.2000
477.93	178.7000
478.28	178.0500
478.64	180.1000
478.99	181.8000
479.34	185.0500
479.69	187.6500
480.04	188.8000
480.39	190.6500
480.74	188.9500
481.09	193.1500
481.44	196.1000
481.79	195.1000
482.15	196.8000
482.50	198.2500
482.85	200.8500
483.20	204.2500
483.55	203.3000
483.90	206.1000
484.25	208.3000
484.60	206.7000
484.95	209.7500
485.30	209.9500
485.65	212.1000
486.00	214.4500
486.35	210.6500
486.70	213.4000
487.05	220.1500
487.40	217.6000
487.75	221.1000
488.10	220.3500
488.45	222.0500
488.80	222.5000
489.15	228.0500
489.50	227.9500
489.85	227.2000
490.20	229.4000
490.55	230.8500
490.90	232.2000
491.25	234.2500
491.60	232.5500
491.95	233.6500
492.30	234.2500
492.65	238.0500
493.00	237.6000
493.35	239.2500
493.70	241.2000
494.05	243.0000
494.40	246.6000
494.75	245.3500
495.10	244.9000
495.45	246.0000
495.80	247.1000
496.15	249.3500
496.50	249.8000
496.84	248.8000
497.19	248.9500
497.54	252.7000
497.89	253.7000
498.24	253.1500
498.59	257.7000
498.94	256.8000
499.29	255.3500
499.64	255.3500
499.99	259.3500
500.33	260.8000
500.68	261.3000
501.03	261.5000
501.38	261.7000
501.73	266.2500
502.08	263.4500
502.43	266.8500
502.77	267.4000
503.12	268.2000
503.47	269.3500
503.82	271.7000
504.17	272.0500
504.52	275.8500
504.86	276.4500
505.21	279.4500
505.56	277.9500
505.91	277.6000
506.26	281.0500
506.61	281.1500
506.95	283.3000
507.30	283.6500
507.65	286.4500
508.00	287.9500
508.35	288.4500
508.69	288.5000
509.04	290.8500
509.39	291.3500
509.74	291.6500
510.08	292.8000
510.43	296.3500
510.78	296.7500
511.13	297.4000
511.47	299.2500
511.82	300.3000
512.17	300.3000
512.52	302.5000
512.86	303.5000
513.21	307.6500
513.56	306.9000
513.91	310.9500
514.25	309.2000
514.60	313.6500
514.95	314.0000
515.30	314.0000
515.64	315.0000
515.99	318.7000
516.34	318.7500
516.68	318.9000
517.03	324.4500
517.38	323.0000
517.72	327.4000
518.07	324.3000
518.42	325.9500
518.76	329.7000
519.11	330.9000
519.46	332.8500
519.80	333.8000
520.15	333.5500
520.50	336.9000
520.84	336.0000
521.19	339.0500
521.54	338.7500
521.88	338.3000
522.23	341.3000
522.58	340.2500
522.92	342.8500
523.27	343.6500
523.61	345.2500
523.96	346.8000
524.31	349.1500
524.65	352.4000
525.00	350.7000
525.34	348.6000
525.69	349.5500
526.04	353.1000
526.38	355.4500
526.73	351.9000
527.07	356.9500
527.42	356.2500
527.76	358.6000
528.11	360.0000
528.46	358.5000
528.80	359.0000
529.15	358.3000
529.49	359.6500
529.84	358.8000
530.18	361.7000
530.53	364.2000
530.87	364.6000
531.22	363.0500
531.56	365.5000
531.91	365.1000
532.25	363.9500
532.60	364.5500
532.94	364.6000
533.29	366.9000
533.63	366.8000
533.98	366.5500
534.32	369.5500
534.67	373.5500
535.01	371.2000
535.36	370.8500
535.70	374.7000
536.05	374.1500
536.39	376.3500
536.74	371.8500
537.08	370.4500
537.43	372.8500
537.77	374.7500
538.12	377.6000
538.46	379.3000
538.80	381.3000
539.15	377.3000
539.49	380.2000
539.84	381.5000
540.18	384.3500
540.53	382.9000
540.87	382.6000
541.21	384.8000
541.56	385.2000
541.90	386.0000
542.25	387.7000
542.59	386.0500
542.93	388.3500
543.28	387.0000
543.62	387.5000
543.97	388.9000
544.31	389.6000
544.65	391.9000
545.00	393.7000
545.34	393.4500
545.68	394.4500
546.03	394.3500
546.37	396.1000
546.71	397.6500
547.06	397.0000
547.40	396.6500
547.74	399.6000
548.09	401.4500
548.43	399.3500
548.77	400.9500
549.12	401.8000
549.46	401.4000
549.80	405.4000
550.15	406.5500
550.49	407.4000
550.83	407.1500
551.17	408.7000
551.52	410.3500
551.86	410.3000
552.20	410.8000
552.55	413.7000
552.89	411.6500
553.23	416.0500
553.57	417.2000
553.92	414.7500
554.26	419.8000
554.60	417.2000
554.94	419.7000
555.29	422.2000
555.63	422.5500
555.97	425.8000
556.31	423.9500
556.66	424.4500
557.00	424.8500
557.34	428.0500
557.68	429.4000
558.02	430.6000
558.37	430.0500
558.71	430.7000
559.05	430.5000
559.39	432.1500
559.73	434.8000
560.08	436.4500
560.42	437.0500
560.76	435.3000
561.10	441.1500
561.44	437.3500
561.78	438.5500
562.13	440.7000
562.47	439.1000
562.81	443.2500
563.15	440.2000
563.49	444.0000
563.83	447.0500
564.17	444.7000
564.52	448.0000
564.86	449.2000
565.20	447.7000
565.54	445.2000
565.88	445.8000
566.22	450.7000
566.56	448.3500
566.90	450.9000
567.24	454.9000
567.59	451.8000
567.93	452.2500
568.27	455.7000
568.61	457.5500
568.95	454.5000
569.29	455.5000
569.63	457.7500
569.97	457.7000
570.31	454.5500
570.65	455.9500
570.99	456.4500
571.33	460.4000
571.67	454.6000
572.01	457.4500
572.35	460.8500
572.69	459.2000
573.03	460.6500
573.37	461.4000
573.71	463.0500
574.05	456.0500
574.39	459.3000
574.73	460.9000
575.07	457.8000
575.41	460.5500
575.75	463.9000
576.09	465.6000
576.43	463.8500
576.77	463.7000
577.11	461.2000
577.45	463.2000
577.79	461.9000
578.13	464.2000
578.47	461.3000
578.81	463.4000
579.15	464.9500
579.49	468.9000
579.83	468.4500
580.17	469.7500
580.51	466.4000
580.85	466.4000
581.19	465.4500
581.53	467.1500
581.87	465.9000
582.20	468.9000
582.54	468.2000
582.88	468.2500
583.22	464.0500
583.56	464.8500
583.90	468.8000
584.24	468.6500
584.58	466.2500
584.92	470.9500
585.25	473.0500
585.59	468.2500
585.93	471.5000
586.27	473.2000
586.61	469.0000
586.95	472.7500
587.29	470.8000
587.62	466.7500
587.96	472.2000
588.30	471.8000
588.64	470.1500
588.98	472.9500
589.31	474.0000
589.65	472.2500
589.99	471.8000
590.33	474.4500
590.67	475.0500
591.01	475.8000
591.34	475.2000
591.68	475.9000
592.02	475.2500
592.36	475.2000
592.69	475.8000
593.03	475.6000
593.37	479.0000
593.71	478.1500
594.04	477.6000
594.38	479.4000
594.72	481.0000
595.06	478.7000
595.39	479.6000
595.73	479.8000
596.07	482.5500
596.41	483.0000
596.74	487.3000
597.08	481.7000
597.42	484.7000
597.76	482.4500
598.09	484.4000
598.43	482.7000
598.77	483.5500
599.10	487.2000
599.44	486.3500
599.78	484.7000
600.11	485.3000
600.45	489.0000
600.79	485.2500
601.12	486.2500
601.46	490.0000
601.80	488.7000
602.13	487.0000
602.47	489.1500
602.81	488.0000
603.14	488.2500
603.48	491.9000
603.82	489.6500
604.15	488.2000
604.49	493.6500
604.82	491.9500
605.16	492.7500
