OOIBase32 Version 1.0.0.8 Data File
++++++++++++++++++++++++++++++++++++
Date: Monday, January 21, 1980, 02:21:21
User: Valued Ocean Optics Customer
Spectrometer Serial Number: Unknown
Spectrometer Channel: Master
Integration Time (msec): 7
Spectra Averaged: 20
Boxcar Smoothing: 0
Correct for Electrical Dark: Disabled
Time Normalized: Disabled
Dual-beam Reference: Disabled
Reference Channel: Master
>>>>>Begin Spectral Data<<<<<
179.00	0.0000
179.38	0.0000
179.75	166.6650
180.13	131.8181
180.51	76.9229
180.88	-5.5555
181.26	350.0038
181.64	0.0000
182.02	-35.2933
182.39	149.9995
182.77	0.0000
183.15	77.7777
183.52	169.9997
183.90	649.9619
184.28	36.1113
184.65	0.0000
185.03	223.5300
185.41	-314.2866
185.78	77.7766
186.16	17.6473
186.53	300.0000
186.91	-55.5550
187.29	-1000.0916
187.66	-87.4993
188.04	-11.9995
188.42	54.1666
188.79	100.0000
189.17	143.7502
189.55	77.2727
189.92	55.0726
190.30	88.1188
190.67	78.5714
191.05	73.8462
191.43	92.4242
191.80	73.8462
192.18	82.5396
192.56	79.0124
192.93	144.2309
193.31	45.9770
193.68	36.1110
194.06	94.3182
194.44	46.1538
194.81	59.2593
195.19	75.0000
195.56	54.8389
195.94	84.0908
196.32	62.9630
196.69	32.7273
197.07	109.2105
197.44	72.7272
197.82	46.8086
198.19	62.9032
198.57	73.8094
198.95	75.0000
199.32	18.8679
199.70	64.9351
200.07	87.1795
200.45	62.8573
200.82	79.1043
201.20	92.6471
201.57	75.9259
201.95	102.3811
202.33	72.4139
202.70	51.2819
203.08	79.7467
203.45	78.1251
203.83	66.6668
204.20	77.1739
204.58	68.0412
204.95	101.1364
205.33	109.4594
205.70	103.0771
206.08	105.6818
206.45	79.5179
206.83	80.3921
207.20	88.7097
207.58	63.1580
207.95	79.2683
208.33	75.0001
208.70	67.0588
209.08	98.5293
209.45	66.6666
209.83	40.1786
210.20	45.9999
210.58	101.6130
210.95	67.9999
211.33	46.8750
211.70	91.4287
212.08	74.3902
212.45	79.3650
212.83	76.0870
213.20	98.7012
213.58	98.4850
213.95	63.9999
214.33	84.6939
214.70	105.7142
215.07	78.4809
215.45	84.7223
215.82	90.2776
216.20	76.3157
216.57	58.6957
216.95	78.8235
217.32	51.7242
217.70	71.7646
218.07	107.4627
218.44	115.7144
218.82	111.7645
219.19	147.4998
219.57	72.1310
219.94	97.2603
220.32	77.9221
220.69	58.2677
221.06	75.0000
221.44	94.4443
221.81	80.5970
222.19	42.4658
222.56	47.1429
222.93	60.4939
223.31	95.0819
223.68	85.1851
224.06	52.7473
224.43	56.2499
224.80	77.1739
225.18	81.6328
225.55	77.7778
225.92	78.6668
226.30	95.0001
226.67	88.0001
227.05	88.8890
227.42	69.8925
227.79	61.9718
228.17	76.2499
228.54	83.7500
228.91	91.6667
229.29	76.3441
229.66	105.7144
230.03	66.2921
230.41	65.2631
230.78	68.7500
231.15	83.1169
231.53	36.2636
231.90	63.0631
232.27	68.1318
232.65	87.3015
233.02	91.7647
233.39	81.4160
233.77	72.5000
234.14	88.7501
234.51	59.1398
234.89	91.8033
235.26	69.1358
235.63	97.9167
236.01	83.9506
236.38	81.2498
236.75	74.2425
237.12	97.7012
237.50	108.0645
237.87	100.0000
238.24	75.5813
238.62	87.1429
238.99	71.5687
239.36	72.5490
239.73	100.0000
240.11	86.9049
240.48	69.4117
240.85	90.5262
241.23	67.2567
241.60	85.8586
241.97	63.4146
242.34	77.0000
242.72	71.0527
243.09	123.6843
243.46	57.1429
243.83	82.8282
244.21	55.5556
244.58	63.6364
244.95	109.4118
245.32	53.4883
245.70	92.0455
246.07	100.8928
246.44	83.6736
246.81	57.6087
247.18	57.3033
247.56	89.5523
247.93	108.9553
248.30	78.3132
248.67	104.1668
249.04	115.0000
249.42	82.9787
249.79	84.2697
250.16	106.9444
250.53	70.4918
250.90	76.4707
251.28	88.2353
251.65	121.6215
252.02	92.1875
252.39	85.5555
252.76	92.1740
253.14	98.6486
253.51	96.6102
253.88	75.0000
254.25	76.3158
254.62	53.0000
254.99	83.7208
255.37	69.1489
255.74	73.6842
256.11	81.2500
256.48	55.4456
256.85	89.7196
257.22	57.7777
257.59	66.6667
257.97	101.4083
258.34	97.3334
258.71	76.6233
259.08	96.2500
259.45	73.1482
259.82	61.8182
260.19	56.8628
260.56	66.3635
260.94	73.9131
261.31	56.0975
261.68	111.2674
262.05	114.2857
262.42	81.9672
262.79	69.7674
263.16	85.8491
263.53	85.8491
263.90	78.6517
264.28	106.1540
264.65	86.0464
265.02	84.2697
265.39	92.9411
265.76	94.8717
266.13	74.5454
266.50	75.9616
266.87	51.1112
267.24	71.5788
267.61	118.7500
267.98	97.5904
268.35	75.0000
268.72	92.4052
269.09	84.7456
269.46	61.7978
269.84	65.3060
270.21	57.1429
270.58	75.7143
270.95	96.5116
271.32	87.1427
271.69	98.7181
272.06	74.4000
272.43	81.8182
272.80	73.2758
273.17	106.6666
273.54	106.1728
273.91	79.5181
274.28	122.8071
274.65	88.4614
275.02	102.2222
275.39	95.6988
275.76	79.0476
276.13	63.8298
276.50	46.8750
276.87	87.2341
277.24	71.4286
277.61	67.9245
277.98	77.6699
278.35	91.0001
278.72	86.9566
279.09	67.2898
279.46	82.8283
279.83	46.7290
280.20	115.6250
280.57	123.6111
280.94	79.1667
281.31	98.3052
281.67	100.0000
282.04	67.8570
282.41	41.4415
282.78	80.6453
283.15	73.8319
283.52	77.7777
283.89	90.1961
284.26	89.0411
284.63	54.4555
285.00	70.5882
285.37	79.1666
285.74	87.6033
286.11	92.1568
286.48	98.3051
286.85	95.8764
287.21	91.0001
287.58	88.5418
287.95	102.8572
288.32	112.1212
288.69	92.3913
289.06	71.9626
289.43	67.8321
289.80	71.2000
290.17	59.4595
290.54	87.5000
290.90	59.7937
291.27	117.9486
291.64	63.2654
292.01	65.9999
292.38	80.0000
292.75	62.0253
293.12	70.5882
293.48	82.3529
293.85	95.4544
294.22	59.6491
294.59	63.3027
294.96	87.5000
295.33	82.7870
295.70	95.2830
296.06	88.4211
296.43	89.1666
296.80	88.1187
297.17	88.6599
297.54	92.9293
297.91	90.8257
298.27	87.0370
298.64	69.0266
299.01	96.8750
299.38	72.5000
299.75	52.7999
300.11	65.7408
300.48	86.7925
300.85	87.2341
301.22	80.4124
301.59	92.9999
301.95	76.9231
302.32	75.2475
302.69	77.5863
303.06	67.2414
303.43	81.9672
303.79	77.3914
304.16	91.5789
304.53	95.0980
304.90	75.0000
305.26	80.9918
305.63	81.3954
306.00	76.7858
306.37	64.7059
306.73	100.0000
307.10	101.8182
307.47	76.6355
307.84	85.1853
308.20	85.3212
308.57	66.1017
308.94	75.7282
309.31	81.1321
309.67	77.6595
310.04	90.0000
310.41	90.0827
310.77	73.6001
311.14	83.6206
311.51	85.4545
311.88	87.9631
312.24	91.7527
312.61	87.2549
312.98	78.0702
313.34	67.4999
313.71	87.3950
314.08	86.4000
314.44	83.0645
314.81	62.8099
315.18	87.3873
315.55	74.8032
315.91	88.2353
316.28	69.9248
316.65	85.7142
317.01	99.0827
317.38	68.9190
317.75	89.5238
318.11	83.7398
318.48	81.6514
318.84	102.4590
319.21	96.1538
319.58	67.8572
319.94	60.1562
320.31	83.9285
320.68	85.9375
321.04	74.1072
321.41	64.3478
321.78	66.4336
322.14	82.1429
322.51	76.9911
322.87	90.8257
323.24	102.6549
323.61	85.8407
323.97	78.7402
324.34	64.7059
324.70	72.3215
325.07	62.5000
325.44	66.6666
325.80	85.5671
326.17	85.1852
326.53	71.5232
326.90	65.9723
327.27	72.7274
327.63	39.2857
328.00	76.7742
328.36	58.5585
328.73	75.0001
329.09	75.3845
329.46	79.0540
329.83	67.1328
330.19	61.4754
330.56	60.0000
330.92	76.2237
331.29	80.7946
331.65	82.0896
332.02	75.3846
332.38	79.7297
332.75	64.9350
333.11	63.3663
333.48	92.3809
333.84	76.3976
334.21	61.2903
334.58	70.0637
334.94	69.0141
335.31	78.7672
335.67	54.9382
336.04	68.7898
336.40	46.7532
336.77	87.5913
337.13	77.6699
337.50	83.2061
337.86	78.1955
338.22	78.0303
338.59	63.8614
338.95	80.5031
339.32	72.9560
339.68	71.3236
340.05	86.4865
340.41	93.0556
340.78	84.0580
341.14	55.7823
341.51	81.4815
341.87	72.8972
342.24	52.7397
342.60	76.5433
342.96	66.4286
343.33	65.3846
343.69	66.6667
344.06	63.4832
344.42	59.1398
344.79	56.4626
345.15	59.6273
345.51	67.2131
345.88	66.6667
346.24	57.6720
346.61	61.1765
346.97	64.5570
347.34	62.8273
347.70	60.1124
348.06	54.5945
348.43	42.7184
348.79	44.5714
349.16	56.9948
349.52	61.0778
349.88	58.7096
350.25	63.4921
350.61	57.3770
350.97	50.2488
351.34	57.4879
351.70	66.8508
352.07	63.0769
352.43	55.9782
352.79	58.1498
353.16	60.0806
353.52	45.3608
353.88	44.8598
354.25	49.1072
354.61	43.9815
354.97	61.5384
355.34	56.3381
355.70	47.4178
356.06	47.8469
356.43	36.9099
356.79	54.3860
357.15	45.9228
357.52	52.9914
357.88	52.1569
358.24	40.5063
358.60	47.0874
358.97	41.8804
359.33	47.4790
359.69	48.3146
360.06	52.4793
360.42	49.8128
360.78	48.9960
361.14	42.3488
361.51	39.3502
361.87	45.6929
362.23	48.5294
362.60	34.0909
362.96	42.5087
363.32	32.8467
363.68	34.6021
364.05	38.0805
364.41	38.7301
364.77	41.1765
365.13	30.0000
365.50	39.6285
365.86	33.6182
366.22	34.4051
366.58	35.3312
366.95	30.8383
367.31	31.9648
367.67	34.9544
368.03	28.7009
368.39	30.3303
368.76	31.6239
369.12	31.0881
369.48	38.2812
369.84	39.2105
370.20	24.1379
370.57	34.9207
370.93	30.2955
371.29	37.2263
371.65	29.5238
372.01	29.3556
372.38	30.6264
372.74	31.2941
373.10	28.1324
373.46	29.5302
373.82	27.9121
374.18	33.6083
374.55	33.4737
374.91	30.7851
375.27	32.0408
375.63	34.5309
375.99	28.3898
376.35	27.3764
376.71	29.0721
377.08	31.5094
377.44	31.4387
377.80	32.7370
378.16	31.9778
378.52	35.4132
378.88	28.8710
379.24	32.7332
379.60	32.3718
379.97	31.6375
380.33	31.9648
380.69	34.1732
381.05	39.2806
381.41	42.6813
381.77	41.1175
382.13	35.1531
382.49	42.5228
382.85	43.6508
383.21	42.9114
383.57	48.8372
383.94	47.3623
384.30	47.3068
384.66	50.0000
385.02	55.4580
385.38	54.7506
385.74	58.3055
386.10	54.4586
386.46	57.5203
386.82	57.8838
387.18	62.4599
387.54	62.9668
387.90	59.2441
388.26	63.8095
388.62	66.0893
388.98	65.7363
389.34	65.1402
389.70	67.5993
390.06	67.5781
390.42	70.6274
390.78	69.5279
391.14	70.3112
391.50	71.0638
391.86	72.2682
392.22	70.8268
392.58	72.1519
392.94	78.2722
393.30	75.8761
393.66	74.2284
394.02	76.1509
394.38	75.0206
394.74	76.4095
395.10	77.3109
395.46	77.4768
395.82	78.0664
396.18	75.1644
396.54	76.6361
396.90	78.6779
397.26	78.2580
397.62	77.0385
397.98	78.2190
398.34	80.4927
398.70	81.2419
399.05	79.2339
399.41	82.0856
399.77	81.6428
400.13	78.5544
400.49	80.9060
400.85	80.0220
401.21	82.0743
401.57	82.2222
401.93	80.8816
402.29	82.5989
402.65	80.1729
403.00	81.4948
403.36	83.7138
403.72	82.5858
404.08	84.4706
404.44	83.4362
404.80	83.8323
405.16	83.2392
405.52	82.6222
405.87	84.9199
406.23	85.4881
406.59	83.5467
406.95	83.9815
407.31	85.5357
407.67	84.6598
408.03	83.9668
408.38	85.8760
408.74	86.7676
409.10	86.7133
409.46	86.0949
409.82	87.5391
410.17	85.4947
410.53	86.6858
410.89	86.5504
411.25	87.6910
411.61	86.8379
411.97	86.6667
412.32	86.0251
412.68	86.5880
413.04	89.0349
413.40	87.4105
413.75	87.4393
414.11	87.6835
414.47	86.2554
414.83	87.4222
415.19	88.6449
415.54	88.3955
415.90	86.6333
416.26	87.6485
416.62	85.9756
416.97	87.6271
417.33	88.4393
417.69	88.2849
418.05	88.6664
418.40	87.9836
418.76	88.8205
419.12	89.7832
419.48	87.7490
419.83	88.8670
420.19	89.6854
420.55	88.5856
420.90	88.4720
421.26	89.6157
421.62	90.3552
421.98	89.6580
422.33	89.7246
422.69	90.9091
423.05	90.3374
423.40	90.7972
423.76	89.5144
424.12	88.8457
424.47	89.1630
424.83	90.0529
425.19	89.3074
425.54	90.6928
425.90	90.8156
426.26	89.2387
426.61	89.7796
426.97	89.9656
427.33	90.4808
427.68	89.9805
428.04	90.4762
428.40	90.7881
428.75	90.7225
429.11	91.1085
429.47	91.3211
429.82	91.1309
430.18	90.4722
430.53	91.1578
430.89	91.2017
431.25	90.6002
431.60	90.7529
431.96	91.8503
432.31	91.4880
432.67	90.5548
433.03	91.4906
433.38	90.2756
433.74	90.7278
434.09	90.3875
434.45	91.6518
434.81	90.6478
435.16	91.4312
435.52	91.0718
435.87	91.0235
436.23	91.5436
436.58	90.7425
436.94	90.9933
437.30	91.5096
437.65	91.7142
438.01	90.8329
438.36	90.8642
438.72	91.6562
439.07	91.6636
439.43	91.1686
439.78	90.7636
440.14	90.2219
440.49	91.6506
440.85	92.0235
441.20	92.1134
441.56	91.7628
441.91	91.4031
442.27	91.2691
442.62	92.0361
442.98	92.4853
443.33	90.9795
443.69	91.0275
444.04	91.6339
444.40	91.7776
444.75	92.6576
445.11	91.9204
445.46	91.4117
445.82	91.8040
446.17	91.1971
446.53	91.7956
446.88	92.0898
447.23	91.8494
447.59	92.2053
447.94	92.5463
448.30	92.3378
448.65	92.8561
449.01	92.5175
449.36	92.4534
449.72	92.0498
450.07	91.6523
450.42	92.1936
450.78	92.0921
451.13	91.4268
451.49	91.3871
451.84	92.3427
452.19	92.4431
452.55	91.9513
452.90	92.9311
453.26	91.7658
453.61	91.6732
453.96	91.6938
454.32	92.3427
454.67	91.8970
455.02	92.8147
455.38	91.8497
455.73	92.0621
456.09	92.3390
456.44	92.2095
456.79	91.7190
457.15	92.2146
457.50	93.0381
457.85	92.1196
458.21	91.9219
458.56	92.8093
458.91	92.7173
459.27	92.7198
459.62	92.9196
459.97	92.8900
460.32	92.9514
460.68	92.8556
461.03	92.7451
461.38	91.8930
461.74	92.8916
462.09	93.1453
462.44	93.0027
462.80	92.5703
463.15	92.8077
463.50	92.5859
463.85	93.5538
464.21	93.1160
464.56	92.6565
464.91	93.1276
465.26	92.9416
465.62	92.9368
465.97	93.4979
466.32	92.9429
466.67	92.8272
467.03	91.8826
467.38	92.8366
467.73	93.7205
468.08	92.7062
468.44	93.1690
468.79	93.1447
469.14	93.6661
469.49	92.2469
469.85	92.9695
470.20	93.8892
470.55	93.5028
470.90	93.7483
471.25	93.8379
471.61	93.4837
471.96	93.0887
472.31	92.6584
472.66	93.5995
473.01	94.3614
473.36	93.5981
473.72	93.3514
474.07	93.6084
474.42	93.4196
474.77	93.7527
475.12	93.7672
475.47	93.7808
475.83	93.4571
476.18	93.5892
476.53	93.5887
476.88	93.5197
477.23	93.8090
477.58	93.6491
477.93	93.8900
478.28	94.1452
478.64	94.0843
478.99	93.6522
479.34	93.8945
479.69	93.4303
480.04	94.2612
480.39	94.0799
480.74	94.0738
481.09	94.1843
481.44	93.8256
481.79	93.6610
482.15	94.1908
482.50	93.8336
482.85	94.0034
483.20	94.3336
483.55	94.2929
483.90	94.1481
484.25	93.6572
484.60	94.1171
484.95	94.3656
485.30	94.3544
485.65	94.3797
486.00	94.0845
486.35	94.2869
486.70	94.1176
487.05	94.2389
487.40	94.3270
487.75	93.9746
488.10	94.2347
488.45	94.7859
488.80	94.2142
489.15	94.6730
489.50	94.5043
489.85	94.2497
490.20	94.3144
490.55	94.5333
490.90	94.8256
491.25	94.7655
491.60	94.6342
491.95	94.6452
492.30	94.4800
492.65	94.5436
493.00	94.5251
493.35	94.6374
493.70	94.4469
494.05	94.5692
494.40	94.4027
494.75	94.6054
495.10	95.0584
495.45	94.9741
495.80	94.7854
496.15	94.9943
496.50	94.9178
496.84	94.5921
497.19	94.7545
497.54	94.8218
497.89	94.9207
498.24	94.7119
498.59	94.6756
498.94	94.7304
499.29	95.2815
499.64	95.0659
499.99	94.8923
500.33	94.5981
500.68	95.1241
501.03	94.9879
501.38	94.6801
501.73	95.0105
502.08	94.7199
502.43	95.0466
502.77	95.0803
503.12	94.9123
503.47	94.9818
503.82	95.3597
504.17	95.4429
504.52	94.9658
504.86	94.9421
505.21	94.7640
505.56	95.3331
505.91	95.1739
506.26	95.3200
506.61	94.9725
506.95	95.0168
507.30	95.3231
507.65	95.1218
508.00	95.3030
508.35	95.0532
508.69	95.0716
509.04	95.3548
509.39	94.8430
509.74	95.0321
510.08	95.0839
510.43	95.2155
510.78	94.9820
511.13	94.8273
511.47	95.1880
511.82	94.9302
512.17	95.1597
512.52	95.2239
512.86	95.0876
513.21	95.0706
513.56	94.7992
513.91	95.6816
514.25	95.2305
514.60	95.1626
514.95	95.0739
515.30	95.2907
515.64	95.2926
515.99	95.0898
516.34	95.0316
516.68	95.2909
517.03	95.2590
517.38	95.1945
517.72	94.9181
518.07	95.0623
518.42	95.0109
518.76	95.4552
519.11	95.0275
519.46	95.4716
519.80	95.7011
520.15	95.2280
520.50	95.3801
520.84	95.2194
521.19	95.0831
521.54	95.2951
521.88	95.2498
522.23	95.5118
522.58	95.0978
522.92	95.4679
523.27	95.2031
523.61	95.2508
523.96	95.2657
524.31	95.2693
524.65	95.2000
525.00	94.9780
525.34	94.9900
525.69	95.2744
526.04	94.8923
526.38	95.2692
526.73	95.4935
527.07	95.4500
527.42	95.2143
527.76	95.4842
528.11	95.4986
528.46	95.2001
528.80	95.2417
529.15	95.2868
529.49	95.4967
529.84	95.2881
530.18	95.6627
530.53	95.1080
530.87	95.1545
531.22	95.3064
531.56	95.1146
531.91	95.3055
532.25	95.3769
532.60	95.3661
532.94	95.5850
533.29	95.3447
533.63	95.1781
533.98	95.1972
534.32	95.0829
534.67	95.2472
535.01	95.5744
535.36	95.4837
535.70	95.4377
536.05	95.0486
536.39	95.1182
536.74	94.9518
537.08	95.3240
537.43	95.1772
537.77	94.9827
538.12	95.2934
538.46	95.3337
538.80	95.3091
539.15	95.2225
539.49	95.1090
539.84	95.1741
540.18	95.2367
540.53	95.3413
540.87	95.3453
541.21	95.0934
541.56	95.1191
541.90	95.0746
542.25	95.2102
542.59	95.2331
542.93	95.3200
543.28	95.3054
543.62	95.0958
543.97	94.9070
544.31	95.2286
544.65	94.9904
545.00	95.0312
545.34	95.0961
545.68	95.0661
546.03	95.4848
546.37	95.4468
546.71	95.3738
547.06	95.0828
547.40	95.0595
547.74	95.0220
548.09	95.0127
548.43	95.1644
548.77	94.9703
549.12	95.1957
549.46	95.0549
549.80	95.0596
550.15	95.0372
550.49	95.2292
550.83	94.9431
551.17	94.8236
551.52	95.1216
551.86	95.2447
552.20	95.1217
552.55	94.9627
552.89	94.9330
553.23	94.8170
553.57	95.0807
553.92	94.9465
554.26	95.0472
554.60	95.0094
554.94	95.0757
555.29	94.8284
555.63	95.1343
555.97	94.9815
556.31	95.0671
556.66	94.6851
557.00	94.7801
557.34	94.7761
557.68	94.7659
558.02	94.9356
558.37	94.9525
558.71	94.8980
559.05	95.0927
559.39	95.0023
559.73	94.8418
560.08	94.9352
560.42	94.8762
560.76	94.6038
561.10	94.5659
561.44	94.8771
561.78	94.8370
562.13	94.9328
562.47	94.7590
562.81	94.5891
563.15	94.9466
563.49	94.7308
563.83	94.9299
564.17	94.7904
564.52	94.6102
564.86	94.7873
565.20	94.8241
565.54	94.6701
565.88	94.6717
566.22	94.6225
566.56	94.8463
566.90	94.9486
567.24	94.5934
567.59	94.7637
567.93	94.7954
568.27	94.6609
568.61	94.5285
568.95	94.4789
569.29	94.6115
569.63	94.5651
569.97	94.5857
570.31	94.5162
570.65	94.6384
570.99	94.6469
571.33	94.6287
571.67	94.5843
572.01	94.6219
572.35	94.5685
572.69	94.4946
573.03	94.6557
573.37	94.6881
573.71	94.4832
574.05	94.4119
574.39	94.4427
574.73	94.2799
575.07	94.4249
575.41	94.3021
575.75	94.3428
576.09	94.5438
576.43	94.5480
576.77	94.5142
577.11	94.3628
577.45	94.3570
577.79	94.3362
578.13	94.1652
578.47	94.1691
578.81	94.2543
579.15	94.2058
579.49	94.4401
579.83	94.2915
580.17	94.2498
580.51	94.3433
580.85	94.2248
581.19	94.2383
581.53	94.2659
581.87	94.1926
582.20	94.3105
582.54	94.1181
582.88	94.0834
583.22	94.1966
583.56	93.9280
583.90	94.2780
584.24	94.1398
584.58	94.2614
584.92	94.2471
585.25	94.1039
585.59	94.0239
585.93	94.0610
586.27	93.8945
586.61	94.0009
586.95	93.9876
587.29	93.8428
587.62	93.9717
587.96	94.0121
588.30	93.9694
588.64	93.9131
588.98	93.8410
589.31	93.8827
589.65	93.9109
589.99	93.6856
590.33	93.9640
590.67	94.0838
591.01	94.2698
591.34	93.7965
591.68	93.7348
592.02	93.9976
592.36	93.7837
592.69	94.2469
593.03	93.6936
593.37	93.8450
593.71	93.7254
594.04	93.6489
594.38	93.6372
594.72	93.7755
595.06	93.7951
595.39	93.6508
595.73	93.9505
596.07	93.8186
596.41	93.9483
596.74	93.8061
597.08	93.7151
597.42	93.6116
597.76	93.7957
598.09	93.5309
598.43	93.7521
598.77	93.5161
599.10	93.7707
599.44	93.6919
599.78	93.6941
600.11	93.7144
600.45	93.6148
600.79	93.7362
601.12	93.6667
601.46	93.6157
601.80	93.6036
602.13	93.6088
602.47	93.6072
602.81	93.6409
603.14	93.5297
603.48	93.5621
603.82	93.4572
604.15	93.5646
604.49	93.3837
604.82	93.5457
605.16	93.3114
605.50	93.3213
605.83	93.2951
606.17	93.3231
606.50	93.5819
606.84	93.4268
607.18	93.4732
607.51	93.3477
607.85	93.4120
608.18	93.3477
608.52	93.4247
608.86	93.4622
609.19	93.4881
609.53	93.3550
609.86	93.5693
610.20	93.2685
610.53	93.2127
610.87	93.3301
611.20	93.2115
611.54	93.1631
611.87	93.0416
612.21	93.0982
612.54	93.0226
612.88	93.1098
613.21	93.3878
613.55	93.2431
613.88	93.2895
614.22	93.1432
614.55	93.1626
