OOIBase32 Version 1.0.0.8 Data File
++++++++++++++++++++++++++++++++++++
Date: Monday, January 21, 1980, 02:21:21
User: Valued Ocean Optics Customer
Spectrometer Serial Number: Unknown
Spectrometer Channel: Master
Integration Time (msec): 7
Spectra Averaged: 20
Boxcar Smoothing: 0
Correct for Electrical Dark: Disabled
Time Normalized: Disabled
Dual-beam Reference: Disabled
Reference Channel: Master
>>>>>Begin Spectral Data<<<<<
179.00	0.0000
179.38	0.0000
179.75	72.4500
180.13	73.3500
180.51	73.0000
180.88	75.3000
181.26	73.1000
181.64	73.5000
182.02	75.5500
182.39	74.0500
182.77	74.0500
183.15	72.3500
183.52	73.5000
183.90	74.4500
184.28	74.7000
184.65	73.5000
185.03	73.5000
185.41	74.5000
185.78	73.8000
186.16	73.9500
186.53	73.2500
186.91	74.5500
187.29	74.0500
187.66	74.5500
188.04	75.4500
188.42	76.9000
188.79	77.0500
189.17	77.2000
189.55	78.2500
189.92	78.1000
190.30	78.6500
190.67	78.0000
191.05	78.1000
191.43	78.2500
191.80	77.1000
192.18	77.5000
192.56	77.7500
192.93	76.7000
193.31	78.6500
193.68	78.0000
194.06	77.6000
194.44	78.1000
194.81	78.0000
195.19	78.4000
195.56	78.4500
195.94	79.0500
196.32	77.3000
196.69	78.0000
197.07	78.1500
197.44	78.5500
197.82	77.0500
198.19	77.6500
198.57	77.8000
198.95	78.8500
199.32	78.6500
199.70	78.6500
200.07	78.0000
200.45	79.1000
200.82	77.6500
201.20	78.1000
201.57	79.0000
201.95	78.4500
202.33	77.7000
202.70	77.3000
203.08	78.5000
203.45	78.2000
203.83	77.8500
204.20	78.3000
204.58	79.2500
204.95	77.7000
205.33	78.0000
205.70	77.9500
206.08	78.2000
206.45	78.0500
206.83	77.9500
207.20	78.5000
207.58	78.4500
207.95	78.6000
208.33	78.4000
208.70	79.2500
209.08	77.9000
209.45	77.6500
209.83	79.9000
210.20	79.6500
210.58	77.2500
210.95	78.4000
211.33	79.5500
211.70	78.2000
212.08	78.7500
212.45	78.3000
212.83	78.3500
213.20	77.7500
213.58	77.3500
213.95	77.8000
214.33	78.6000
214.70	78.1500
215.07	78.3000
215.45	78.6000
215.82	78.0500
216.20	79.3000
216.57	79.0500
216.95	78.5000
217.32	79.2000
217.70	79.1500
218.07	78.7000
218.44	78.1000
218.82	77.2500
219.19	77.5000
219.57	78.3000
219.94	78.3500
220.32	78.2000
220.69	80.1000
221.06	78.4000
221.44	78.8000
221.81	78.6500
222.19	79.3500
222.56	78.7500
222.93	79.6500
223.31	78.1500
223.68	78.0000
224.06	79.5000
224.43	78.7500
224.80	78.5500
225.18	77.7500
225.55	79.2000
225.92	78.1000
226.30	79.0000
226.67	79.5000
227.05	78.9500
227.42	79.1000
227.79	79.3500
228.17	79.0500
228.54	78.1500
228.91	77.6500
229.29	79.2500
229.66	78.9500
230.03	78.3500
230.41	79.6500
230.78	78.4500
231.15	78.8000
231.53	79.3500
231.90	80.2000
232.27	79.4000
232.65	78.0000
233.02	78.7500
233.39	79.6000
233.77	78.6500
234.14	78.8500
234.51	78.8500
234.89	78.2000
235.26	78.8500
235.63	78.5000
236.01	78.3000
236.38	78.8000
236.75	78.2500
237.12	78.7500
237.50	78.4500
237.87	78.3000
238.24	79.5000
238.62	79.0000
238.99	79.5000
239.36	79.5500
239.73	78.4500
240.11	79.4500
240.48	79.5500
240.85	79.0500
241.23	79.5000
241.60	79.4500
241.97	79.4000
242.34	79.4000
242.72	79.6500
243.09	78.1000
243.46	79.6000
243.83	79.0500
244.21	79.6000
244.58	78.3500
244.95	78.6500
245.32	79.1000
245.70	79.2000
246.07	79.6500
246.44	79.8500
246.81	79.5500
247.18	78.7500
247.56	79.1000
247.93	78.9500
248.30	79.4000
248.67	79.1000
249.04	79.1000
249.42	79.0500
249.79	79.2000
250.16	78.6000
250.53	80.0500
250.90	77.5000
251.28	79.2000
251.65	77.9000
252.02	78.1500
252.39	79.1500
252.76	80.1000
253.14	78.7500
253.51	78.5000
253.88	79.0000
254.25	80.3500
254.62	79.4500
254.99	79.0500
255.37	79.8000
255.74	80.0500
256.11	79.2000
256.48	79.8000
256.85	79.5500
257.22	79.7500
257.59	79.6500
257.97	78.4000
258.34	78.7500
258.71	79.1500
259.08	79.4000
259.45	79.8500
259.82	79.5000
260.19	79.9500
260.56	80.5500
260.94	79.3500
261.31	79.0000
261.68	78.8000
262.05	78.3500
262.42	80.5000
262.79	79.3000
263.16	80.0000
263.53	79.4000
263.90	79.2000
264.28	78.9500
264.65	79.5500
265.02	79.1000
265.39	79.2500
265.76	79.7500
266.13	79.9000
266.50	79.6500
266.87	79.8500
267.24	79.5500
267.61	78.8000
267.98	79.3500
268.35	80.5500
268.72	79.2000
269.09	78.8000
269.46	80.2000
269.84	80.3000
270.21	79.7000
270.58	79.5000
270.95	79.1000
271.32	79.3000
271.69	78.8500
272.06	80.1500
272.43	79.8000
272.80	80.2500
273.17	79.9000
273.54	79.3000
273.91	79.2000
274.28	78.5000
274.65	78.5500
275.02	79.6000
275.39	78.6500
275.76	80.4000
276.13	81.4000
276.50	80.0000
276.87	78.7000
277.24	79.6000
277.61	80.5500
277.98	80.0500
278.35	79.5000
278.72	79.8500
279.09	80.0500
279.46	80.1500
279.83	80.9000
280.20	78.2500
280.57	78.6000
280.94	80.6000
281.31	78.8500
281.67	79.4500
282.04	79.0500
282.41	80.8000
282.78	79.2000
283.15	80.2000
283.52	79.7500
283.89	80.5500
284.26	79.0500
284.63	80.3500
285.00	80.6500
285.37	79.2000
285.74	80.5000
286.11	80.0000
286.48	79.3500
286.85	79.2000
287.21	79.5000
287.58	79.4500
287.95	80.5000
288.32	79.3000
288.69	79.2500
289.06	80.1500
289.43	81.0000
289.80	80.5500
290.17	80.4000
290.54	79.7000
290.90	80.6500
291.27	79.5000
291.64	80.4500
292.01	80.4000
292.38	80.1500
292.75	80.1000
293.12	80.3500
293.48	80.3000
293.85	79.1500
294.22	80.4000
294.59	80.2000
294.96	79.5500
295.33	80.4500
295.70	79.7000
296.06	80.1000
296.43	80.2500
296.80	80.0500
297.17	79.6000
297.54	79.4000
297.91	80.1500
298.27	79.8000
298.64	80.8500
299.01	80.1000
299.38	80.6500
299.75	80.9000
300.11	80.4000
300.48	79.5000
300.85	80.5000
301.22	79.9500
301.59	79.8000
301.95	80.7000
302.32	80.7500
302.69	80.7000
303.06	80.8000
303.43	80.4000
303.79	81.2000
304.16	79.6500
304.53	80.5500
304.90	81.3000
305.26	79.9500
305.63	79.8500
306.00	80.4500
306.37	80.7000
306.73	80.0000
307.10	79.9000
307.47	80.6500
307.84	80.8500
308.20	80.3500
308.57	80.8000
308.94	80.5500
309.31	81.0500
309.67	80.5000
310.04	80.5500
310.41	80.2000
310.77	80.9500
311.14	80.4000
311.51	79.9000
311.88	80.2000
312.24	79.7000
312.61	80.0500
312.98	80.0500
313.34	80.0500
313.71	79.9500
314.08	81.1500
314.44	81.0500
314.81	81.8500
315.18	80.3000
315.55	80.4500
315.91	80.6000
316.28	81.9500
316.65	80.3000
317.01	80.7000
317.38	81.9500
317.75	80.6500
318.11	80.8000
318.48	80.8500
318.84	80.4000
319.21	80.6500
319.58	80.4500
319.94	81.5500
320.31	80.1000
320.68	81.6500
321.04	80.8500
321.41	81.5000
321.78	82.2000
322.14	81.1000
322.51	81.4000
322.87	80.4500
323.24	80.1500
323.61	81.6500
323.97	80.8500
324.34	81.4000
324.70	81.1000
325.07	82.4000
325.44	81.5500
325.80	81.2500
326.17	82.2500
326.53	82.5000
326.90	82.0000
327.27	81.4500
327.63	81.7500
328.00	82.4000
328.36	81.7500
328.73	81.2500
329.09	81.3000
329.46	82.5000
329.83	81.3000
330.19	81.7000
330.56	82.2000
330.92	81.9000
331.29	81.4000
331.65	81.7000
332.02	81.2000
332.38	81.8000
332.75	81.6500
333.11	81.1000
333.48	80.6500
333.84	82.2000
334.21	83.1000
334.58	82.3500
334.94	82.5000
335.31	81.6000
335.67	83.0000
336.04	82.2500
336.40	82.9500
336.77	81.6000
337.13	80.8500
337.50	81.8500
337.86	81.7000
338.22	82.2000
338.59	84.1500
338.95	82.4000
339.32	83.0500
339.68	82.3500
340.05	81.7000
340.41	81.9000
340.78	82.1500
341.14	83.2000
341.51	81.9000
341.87	81.3500
342.24	83.2000
342.60	82.7000
342.96	82.9500
343.33	82.9500
343.69	83.1000
344.06	83.0000
344.42	84.3500
344.79	82.5000
345.15	83.3000
345.51	84.1000
345.88	84.2000
346.24	84.3000
346.61	83.6000
346.97	84.2000
347.34	85.2000
347.70	84.7000
348.06	84.6500
348.43	84.8500
348.79	84.7500
349.16	84.6500
349.52	83.2500
349.88	84.1500
350.25	84.7000
350.61	84.8000
350.97	85.0500
351.34	85.6500
351.70	84.5000
352.07	84.9000
352.43	84.9000
352.79	86.4500
353.16	86.3000
353.52	85.5500
353.88	86.5000
354.25	86.5000
354.61	86.4000
354.97	85.2000
355.34	85.2000
355.70	86.8000
356.06	86.3500
356.43	87.7500
356.79	87.2500
357.15	87.4500
357.52	87.4500
357.88	87.7000
358.24	87.6500
358.60	86.9500
358.97	87.9500
359.33	87.8500
359.69	88.4500
360.06	88.4500
360.42	89.0000
360.78	89.1000
361.14	89.4000
361.51	89.8500
361.87	89.4000
362.23	89.6500
362.60	89.3500
362.96	90.3500
363.32	90.6500
363.68	91.2000
364.05	92.3500
364.41	91.4000
364.77	91.8500
365.13	93.1000
365.50	92.5000
365.86	93.5500
366.22	91.9000
366.58	91.7000
366.95	92.9000
367.31	93.5500
367.67	93.4500
368.03	93.6500
368.39	94.7500
368.76	95.1500
369.12	95.3500
369.48	95.9500
369.84	95.5000
370.20	97.4500
370.57	95.6000
370.93	97.1000
371.29	96.5000
371.65	98.4000
372.01	98.2000
372.38	98.9500
372.74	98.2000
373.10	99.0000
373.46	100.1000
373.82	100.2000
374.18	100.6000
374.55	100.5000
374.91	101.0000
375.27	101.2000
375.63	101.5000
375.99	101.6000
376.35	103.3500
376.71	101.9000
377.08	104.2500
377.44	105.2000
377.80	105.7000
378.16	105.3500
378.52	106.3500
378.88	108.2500
379.24	108.6500
379.60	110.3500
379.97	110.5500
380.33	112.5000
380.69	109.7000
381.05	112.2000
381.41	113.7500
381.77	113.4000
382.13	116.3500
382.49	116.6000
382.85	115.7000
383.21	118.7000
383.57	115.6000
383.94	120.9500
384.30	122.4500
384.66	120.7000
385.02	119.4500
385.38	122.2000
385.74	123.4500
386.10	126.5000
386.46	128.7000
386.82	127.8500
387.18	126.4500
387.54	127.3000
387.90	128.8500
388.26	132.1500
388.62	134.0500
388.98	131.5500
389.34	134.1000
389.70	134.5000
390.06	130.5500
390.42	132.8000
390.78	139.3500
391.14	142.5500
391.50	139.9000
391.86	142.6500
392.22	145.8500
392.58	144.5000
392.94	137.3500
393.30	142.4500
393.66	145.8500
394.02	146.3000
394.38	142.2500
394.74	148.2000
395.10	147.2500
395.46	153.2000
395.82	150.6500
396.18	151.0000
396.54	158.3000
396.90	160.2000
397.26	158.9000
397.62	158.4000
397.98	165.9500
398.34	158.2000
398.70	159.5000
399.05	157.2000
399.41	156.9500
399.77	162.6000
400.13	167.5000
400.49	169.7500
400.85	174.5500
401.21	166.0500
401.57	176.4500
401.93	174.9500
402.29	172.2000
402.65	176.8000
403.00	181.9000
403.36	183.7000
403.72	180.1500
404.08	192.0000
404.44	181.5500
404.80	184.6000
405.16	192.1000
405.52	199.5500
405.87	198.7000
406.23	200.4500
406.59	190.6500
406.95	194.6500
407.31	198.3500
407.67	199.9000
408.03	200.3000
408.38	207.1500
408.74	217.1000
409.10	216.7000
409.46	207.8000
409.82	215.9000
410.17	214.9500
410.53	209.3000
410.89	217.1500
411.25	201.5500
411.61	213.8500
411.97	224.9500
412.32	222.8500
412.68	229.2500
413.04	222.7500
413.40	206.3500
413.75	221.9000
414.11	227.9500
414.47	227.0000
414.83	243.4500
415.19	234.5000
415.54	223.7500
415.90	240.8000
416.26	236.7500
416.62	247.2000
416.97	231.6500
417.33	246.7000
417.69	251.8000
418.05	245.8500
418.40	235.8500
418.76	246.1500
419.12	261.4000
419.48	258.8000
419.83	271.6000
420.19	244.7500
420.55	252.7000
420.90	277.0500
421.26	262.1500
421.62	256.0000
421.98	274.2000
422.33	284.7000
422.69	287.1500
423.05	291.1500
423.40	263.5500
423.76	260.4500
424.12	288.6000
424.47	286.5000
424.83	285.0500
425.19	285.7500
425.54	283.9000
425.90	296.2500
426.26	310.9500
426.61	312.3500
426.97	268.0500
427.33	305.2000
427.68	302.4500
428.04	326.0000
428.40	339.2500
428.75	346.4500
429.11	314.8500
429.47	348.9000
429.82	344.9500
430.18	342.4000
430.53	329.8500
430.89	335.4500
431.25	343.4500
431.60	353.9000
431.96	344.4000
432.31	338.7000
432.67	366.8500
433.03	373.1500
433.38	361.8000
433.74	373.2000
434.09	370.0000
434.45	357.7500
434.81	352.3500
435.16	378.5500
435.52	355.1500
435.87	347.1000
436.23	353.2000
436.58	363.4000
436.94	379.7500
437.30	382.9500
437.65	401.6000
438.01	391.6000
438.36	394.2500
438.72	391.0500
439.07	381.4500
439.43	390.7000
439.78	418.6500
440.14	439.7000
440.49	400.4500
440.85	405.0000
441.20	423.2500
441.56	419.2000
441.91	451.8500
442.27	418.1500
442.62	421.0000
442.98	433.4500
443.33	427.2000
443.69	435.6500
444.04	427.1000
444.40	411.0500
444.75	450.3000
445.11	460.1500
445.46	473.1000
445.82	469.7500
446.17	442.3000
446.53	470.0000
446.88	516.4500
447.23	437.1500
447.59	440.3500
447.94	439.7500
448.30	474.0000
448.65	458.8500
449.01	490.4000
449.36	491.0000
449.72	527.2000
450.07	547.9500
450.42	531.8500
450.78	507.6500
451.13	532.6000
451.49	512.2000
451.84	497.5000
452.19	503.2500
452.55	531.8000
452.90	534.0000
453.26	572.4000
453.61	593.2000
453.96	503.4500
454.32	559.5000
454.67	562.4000
455.02	522.5000
455.38	549.8000
455.73	546.7500
456.09	596.9500
456.44	597.0500
456.79	587.5500
457.15	586.5000
457.50	561.0500
457.85	580.2500
458.21	577.2000
458.56	602.0000
458.91	592.1500
459.27	557.1500
459.62	581.6500
459.97	593.0500
460.32	612.3000
460.68	613.0500
461.03	606.7000
461.38	623.4500
461.74	684.5500
462.09	661.3000
462.44	631.5000
462.80	627.6500
463.15	636.6500
463.50	637.3500
463.85	680.3500
464.21	659.2500
464.56	694.1500
464.91	645.6000
465.26	669.4000
465.62	673.7000
465.97	719.3000
466.32	716.0500
466.67	717.3000
467.03	722.2500
467.38	734.6000
467.73	739.4000
468.08	765.6000
468.44	771.4500
468.79	771.1500
469.14	730.1500
469.49	781.8500
469.85	795.4000
470.20	864.9000
470.55	867.8500
470.90	869.7500
471.25	827.9000
471.61	861.0500
471.96	867.0500
472.31	896.3000
472.66	896.9500
473.01	918.9500
473.36	950.1500
473.72	937.6500
474.07	968.5500
474.42	972.9000
474.77	977.8500
475.12	1004.1500
475.47	1034.5000
475.83	1043.2000
476.18	1042.7000
476.53	1030.6500
476.88	1088.7500
477.23	1098.5000
477.58	1094.4000
477.93	1116.5000
478.28	1108.0500
478.64	1131.8000
478.99	1163.2500
479.34	1177.6000
479.69	1202.1500
480.04	1227.3500
480.39	1234.5500
480.74	1214.9000
481.09	1287.6000
481.44	1295.0000
481.79	1286.7500
482.15	1297.6500
482.50	1327.7500
482.85	1328.1500
483.20	1372.5500
483.55	1372.9000
483.90	1403.1500
484.25	1400.2000
484.60	1390.6500
484.95	1425.5000
485.30	1437.4500
485.65	1455.8000
486.00	1473.0000
486.35	1453.4000
486.70	1471.4000
487.05	1527.2000
487.40	1528.2000
487.75	1543.0000
488.10	1555.0500
488.45	1540.6000
488.80	1560.2500
489.15	1592.8000
489.50	1601.7500
489.85	1614.9500
490.20	1611.8500
490.55	1638.4500
490.90	1646.8500
491.25	1655.6000
491.60	1649.8500
491.95	1654.8000
492.30	1679.9000
492.65	1697.8000
493.00	1695.1500
493.35	1700.3000
493.70	1720.5500
494.05	1730.8000
494.40	1763.4000
494.75	1762.6000
495.10	1751.5000
495.45	1762.1500
495.80	1780.3000
496.15	1793.6000
496.50	1782.6000
496.84	1791.0000
497.19	1798.8500
497.54	1822.7500
497.89	1826.7500
498.24	1828.4000
498.59	1856.9500
498.94	1843.2500
499.29	1846.9500
499.64	1857.4500
499.99	1875.5500
500.33	1889.8500
500.68	1889.7000
501.03	1899.5500
501.38	1909.3000
501.73	1929.7500
502.08	1925.3500
502.43	1947.5000
502.77	1955.5000
503.12	1963.4500
503.47	1968.1500
503.82	1980.6500
504.17	1994.6500
504.52	2015.9500
504.86	2020.2500
505.21	2054.6499
505.56	2038.2000
505.91	2049.2000
506.26	2051.3501
506.61	2081.2500
506.95	2084.3501
507.30	2092.5500
507.65	2121.1499
508.00	2114.6499
508.35	2126.0000
508.69	2135.9500
509.04	2154.0500
509.39	2157.7500
509.74	2160.6499
510.08	2170.3000
510.43	2195.2000
510.78	2202.8999
511.13	2217.1001
511.47	2227.7500
511.82	2246.1499
512.17	2240.2500
512.52	2265.3999
512.86	2284.2000
513.21	2296.7500
513.56	2304.6499
513.91	2320.9500
514.25	2327.2500
514.60	2344.7000
514.95	2354.1499
515.30	2356.7500
515.64	2358.6001
515.99	2404.1499
516.34	2404.9500
516.68	2419.1001
517.03	2430.5500
517.38	2437.2500
517.72	2480.1499
518.07	2469.0000
518.42	2473.6499
518.76	2501.3999
519.11	2510.8999
519.46	2532.3000
519.80	2514.6001
520.15	2533.8999
520.50	2557.7500
520.84	2560.6001
521.19	2575.2000
521.54	2585.3501
521.88	2576.1001
522.23	2608.3501
522.58	2606.6001
522.92	2616.6499
523.27	2634.7000
523.61	2637.2000
523.96	2642.8000
524.31	2683.8999
524.65	2692.0000
525.00	2691.3999
525.34	2663.9500
525.69	2675.2000
526.04	2715.2000
526.38	2719.7500
526.73	2718.5000
527.07	2742.6499
527.42	2738.3501
527.76	2757.9500
528.11	2771.4500
528.46	2764.8000
528.80	2769.5000
529.15	2753.7000
529.49	2754.5500
529.84	2776.1001
530.18	2784.8501
530.53	2818.2000
530.87	2806.0500
531.22	2798.3000
531.56	2808.5000
531.91	2820.1001
532.25	2812.5000
532.60	2814.9500
532.94	2828.8999
533.29	2820.0000
533.63	2817.1001
533.98	2818.2500
534.32	2842.5500
534.67	2877.3501
535.01	2878.2000
535.36	2860.7000
535.70	2893.1499
536.05	2906.7500
536.39	2919.4500
536.74	2889.6001
537.08	2874.7500
537.43	2874.5000
537.77	2910.0000
538.12	2932.5000
538.46	2929.5000
538.80	2945.8501
539.15	2921.5000
539.49	2946.1499
539.84	2973.7500
540.18	2969.7500
540.53	2959.8000
540.87	2956.3501
541.21	2993.5500
541.56	2991.2500
541.90	3003.0500
542.25	2988.0000
542.59	2984.1499
542.93	3021.8999
543.28	3002.7500
543.62	3026.0500
543.97	3029.8000
544.31	3037.6499
544.65	3048.8000
545.00	3063.3501
545.34	3069.8999
545.68	3068.8000
546.03	3050.9500
546.37	3085.3999
546.71	3089.8999
547.06	3101.8000
547.40	3105.8999
547.74	3145.7000
548.09	3126.3501
548.43	3131.1499
548.77	3141.6499
549.12	3133.7500
549.46	3135.3999
549.80	3163.2500
550.15	3186.2500
550.49	3178.4500
550.83	3187.5000
551.17	3203.1001
551.52	3194.0500
551.86	3199.8501
552.20	3210.9500
552.55	3240.6001
552.89	3239.7500
553.23	3256.1001
553.57	3265.1499
553.92	3261.3000
554.26	3280.8000
554.60	3264.5500
554.94	3279.0000
555.29	3305.2500
555.63	3305.0000
555.97	3324.1001
556.31	3322.8501
556.66	3338.8999
557.00	3331.0500
557.34	3353.0500
557.68	3372.6001
558.02	3369.7500
558.37	3380.0000
558.71	3380.5000
559.05	3378.1499
559.39	3397.5000
559.73	3420.3501
560.08	3407.9500
560.42	3431.8999
560.76	3429.0500
561.10	3437.9500
561.44	3428.8000
561.78	3457.1499
562.13	3467.0000
562.47	3449.0000
562.81	3483.3999
563.15	3476.7500
563.49	3487.1499
563.83	3506.1499
564.17	3503.4500
564.52	3507.5000
564.86	3523.3999
565.20	3517.7000
565.54	3523.1001
565.88	3526.5000
566.22	3541.3501
566.56	3519.9500
566.90	3546.1001
567.24	3557.6001
567.59	3543.6499
567.93	3554.3000
568.27	3575.1499
568.61	3593.8000
568.95	3572.5500
569.29	3569.5500
569.63	3615.1001
569.97	3599.3999
570.31	3550.0500
570.65	3577.2000
570.99	3594.8000
571.33	3607.6499
571.67	3585.3000
572.01	3590.5000
572.35	3618.3501
572.69	3629.7000
573.03	3627.5500
573.37	3622.2000
573.71	3615.2500
574.05	3594.8501
574.39	3606.5000
574.73	3638.3000
575.07	3612.0000
575.41	3625.7500
575.75	3642.1499
576.09	3663.8000
576.43	3645.2500
576.77	3643.7500
577.11	3624.1001
577.45	3643.2500
577.79	3629.3999
578.13	3657.9500
578.47	3622.0500
578.81	3624.0500
579.15	3633.6499
579.49	3669.5000
579.83	3667.2000
580.17	3674.0000
580.51	3659.9500
580.85	3672.3501
581.19	3670.2500
581.53	3647.2500
581.87	3654.0500
582.20	3666.8999
582.54	3665.3000
582.88	3666.8999
583.22	3645.8000
583.56	3639.2500
583.90	3674.8501
584.24	3672.4500
584.58	3667.3999
584.92	3687.6001
585.25	3693.8501
585.59	3678.5500
585.93	3693.3999
586.27	3716.2000
586.61	3665.3000
586.95	3696.8999
587.29	3713.3501
587.62	3687.3999
587.96	3698.7000
588.30	3711.1001
588.64	3697.6001
588.98	3699.1001
589.31	3714.8000
589.65	3702.6001
589.99	3682.7000
590.33	3714.2000
590.67	3717.0000
591.01	3714.8000
591.34	3735.4500
591.68	3731.2000
592.02	3736.4500
592.36	3732.7500
592.69	3721.8501
593.03	3735.8000
593.37	3741.3999
593.71	3744.5000
594.04	3745.5500
594.38	3740.5500
594.72	3763.2000
595.06	3744.6499
