OOIBase32 Version 1.0.0.8 Data File
++++++++++++++++++++++++++++++++++++
Date: Monday, January 21, 1980, 02:21:21
User: Valued Ocean Optics Customer
Spectrometer Serial Number: Unknown
Spectrometer Channel: Master
Integration Time (msec): 7
Spectra Averaged: 20
Boxcar Smoothing: 0
Correct for Electrical Dark: Disabled
Time Normalized: Disabled
Dual-beam Reference: Disabled
Reference Channel: Master
>>>>>Begin Spectral Data<<<<<
179.00	0.0000
179.38	0.0000
179.75	72.0500
180.13	73.0000
180.51	72.8500
180.88	73.4000
181.26	73.6000
181.64	73.4500
182.02	74.4000
182.39	74.4000
182.77	73.9000
183.15	72.7500
183.52	73.1500
183.90	73.9000
184.28	73.5500
184.65	73.7500
185.03	72.4500
185.41	73.0500
185.78	73.7000
186.16	73.2500
186.53	73.4500
186.91	73.8500
187.29	74.6000
187.66	73.8000
188.04	74.0500
188.42	76.3500
188.79	77.0500
189.17	78.2500
189.55	77.5000
189.92	76.5500
190.30	78.0500
190.67	77.1000
191.05	77.2500
191.43	78.0000
191.80	76.2500
192.18	76.9500
192.56	76.9000
192.93	77.8500
193.31	76.3000
193.68	75.7000
194.06	77.3500
194.44	76.3500
194.81	76.9000
195.19	77.4000
195.56	77.0500
195.94	78.3500
196.32	76.3000
196.69	76.1500
197.07	78.5000
197.44	77.5000
197.82	75.8000
198.19	76.5000
198.57	76.7000
198.95	77.4000
199.32	76.5000
199.70	77.3000
200.07	77.5000
200.45	77.8000
200.82	76.9500
201.20	77.8500
201.57	77.7000
201.95	78.5500
202.33	76.9000
202.70	76.3500
203.08	77.7000
203.45	77.5000
203.83	76.3000
204.20	77.2500
204.58	77.7000
204.95	77.7500
205.33	78.3500
205.70	78.0500
206.08	78.4500
206.45	77.2000
206.83	77.4500
207.20	78.1500
207.58	77.0500
207.95	77.7500
208.33	77.5500
208.70	77.8500
209.08	77.8500
209.45	76.6000
209.83	76.5500
210.20	76.9500
210.58	77.3000
210.95	77.2000
211.33	77.0000
211.70	77.9000
212.08	77.7000
212.45	77.6500
212.83	77.2500
213.20	77.7000
213.58	77.3000
213.95	76.9000
214.33	77.8500
214.70	78.3500
215.07	77.4500
215.45	78.0500
215.82	77.7000
216.20	77.9500
216.57	77.1500
216.95	77.6000
217.32	77.1000
217.70	77.9500
218.07	78.9500
218.44	78.6500
218.82	77.4500
219.19	78.4500
219.57	77.4500
219.94	78.2500
220.32	77.3500
220.69	77.4500
221.06	77.2500
221.44	78.6000
221.81	78.0000
222.19	77.2500
222.56	76.9000
222.93	78.0500
223.31	78.0000
223.68	77.6000
224.06	77.3500
224.43	77.7000
224.80	77.5000
225.18	77.3000
225.55	78.0000
225.92	77.3000
226.30	78.8000
226.67	79.0500
227.05	78.5000
227.42	77.7000
227.79	78.0000
228.17	78.1000
228.54	77.5000
228.91	77.4000
229.29	78.1500
229.66	79.1500
230.03	76.8500
230.41	78.0000
230.78	77.2000
231.15	78.1500
231.53	76.4500
231.90	78.1500
232.27	77.9500
232.65	77.6000
233.02	78.4000
233.39	78.5500
233.77	77.5500
234.14	78.4000
234.51	76.9500
234.89	77.9500
235.26	77.6000
235.63	78.4000
236.01	77.6500
236.38	78.2000
236.75	77.4000
237.12	78.6500
237.50	78.7000
237.87	78.3000
238.24	78.4500
238.62	78.5500
238.99	78.0500
239.36	78.1500
239.73	78.4500
240.11	78.9000
240.48	78.2500
240.85	78.6000
241.23	77.6500
241.60	78.7500
241.97	77.9000
242.34	78.2500
242.72	78.5500
243.09	79.0000
243.46	77.5000
243.83	78.2000
244.21	78.0000
244.58	77.1500
244.95	79.0500
245.32	77.1000
245.70	78.8500
246.07	79.7000
246.44	79.0500
246.81	77.6000
247.18	76.8500
247.56	78.7500
247.93	79.2500
248.30	78.5000
248.67	79.3000
249.04	79.7000
249.42	78.2500
249.79	78.5000
250.16	78.8500
250.53	78.2500
250.90	76.9000
251.28	78.6000
251.65	78.7000
252.02	77.9000
252.39	78.5000
252.76	79.6500
253.14	78.7000
253.51	78.4000
253.88	77.9000
254.25	79.0000
254.62	77.1000
254.99	78.3500
255.37	78.3500
255.74	78.5500
256.11	78.4500
256.48	77.5500
256.85	79.0000
257.22	77.8500
257.59	78.0000
257.97	78.4500
258.34	78.6500
258.71	78.2500
259.08	79.2500
259.45	78.4000
259.82	77.4000
260.19	77.7500
260.56	78.7000
260.94	78.1500
261.31	77.2000
261.68	79.2000
262.05	78.9500
262.42	79.4000
262.79	78.0000
263.16	79.2500
263.53	78.6500
263.90	78.2500
264.28	79.1500
264.65	78.9500
265.02	78.4000
265.39	78.9500
265.76	79.4500
266.13	78.5000
266.50	78.4000
266.87	77.6500
267.24	78.2000
267.61	79.5500
267.98	79.2500
268.35	79.4000
268.72	78.9000
269.09	78.3500
269.46	78.5000
269.84	78.6000
270.21	77.7500
270.58	78.6500
270.95	78.9500
271.32	78.8500
271.69	78.8000
272.06	78.5500
272.43	78.8000
272.80	78.7000
273.17	80.2500
273.54	79.5500
273.91	78.3500
274.28	79.1500
274.65	78.1000
275.02	79.7000
275.39	78.4500
275.76	79.3000
276.13	78.8500
276.50	77.4500
276.87	78.1000
277.24	78.5000
277.61	78.8500
277.98	78.9000
278.35	79.0500
278.72	79.2500
279.09	78.3000
279.46	79.3000
279.83	78.0500
280.20	78.7500
280.57	79.4500
280.94	79.3500
281.31	78.8000
281.67	79.4500
282.04	77.7000
282.41	77.5500
282.78	78.3000
283.15	78.8000
283.52	78.9500
283.89	80.0500
284.26	78.6500
284.63	78.0500
285.00	78.6500
285.37	78.2000
285.74	79.7500
286.11	79.6000
286.48	79.2500
286.85	79.0000
287.21	79.0500
287.58	78.9000
287.95	80.6500
288.32	79.9000
288.69	78.9000
289.06	78.6500
289.43	78.7000
289.80	78.7500
290.17	78.1500
290.54	79.1000
290.90	78.7000
291.27	80.2000
291.64	78.6500
292.01	78.7000
292.38	79.0000
292.75	78.6000
293.12	78.6000
293.48	79.2500
293.85	78.9500
294.22	78.1000
294.59	78.2000
294.96	78.9000
295.33	79.4000
295.70	79.4500
296.06	79.5500
296.43	79.6000
296.80	79.4500
297.17	79.0500
297.54	79.0500
297.91	79.6500
298.27	79.1000
298.64	79.1000
299.01	79.9500
299.38	79.0000
299.75	77.9500
300.11	78.5500
300.48	78.8000
300.85	79.9000
301.22	79.0000
301.59	79.4500
301.95	79.3500
302.32	79.5000
302.69	79.4000
303.06	78.9000
303.43	79.3000
303.79	79.9000
304.16	79.2500
304.53	80.3000
304.90	79.8000
305.26	78.8000
305.63	79.0500
306.00	79.1500
306.37	78.6000
306.73	80.0000
307.10	80.0000
307.47	79.4000
307.84	80.0500
308.20	79.5500
308.57	78.8000
308.94	79.3000
309.31	80.0500
309.67	79.4500
310.04	80.0500
310.41	79.6000
310.77	79.3000
311.14	79.4500
311.51	79.1000
311.88	79.5500
312.24	79.3000
312.61	79.4000
312.98	78.8000
313.34	78.1000
313.71	79.2000
314.08	80.3000
314.44	80.0000
314.81	79.6000
315.18	79.6000
315.55	78.8500
315.91	79.9000
316.28	79.9500
316.65	79.5000
317.01	80.6500
317.38	79.6500
317.75	80.1000
318.11	79.8000
318.48	79.8500
318.84	80.5500
319.21	80.4500
319.58	78.6500
319.94	79.0000
320.31	79.2000
320.68	80.7500
321.04	79.4000
321.41	79.4500
321.78	79.8000
322.14	80.1000
322.51	80.1000
322.87	79.9500
323.24	80.3000
323.61	80.8500
323.97	79.5000
324.34	79.3000
324.70	79.5500
325.07	80.0000
325.44	79.9500
325.80	80.5500
326.17	81.2500
326.53	80.3500
326.90	79.5500
327.27	79.8000
327.63	78.3500
328.00	80.6000
328.36	79.4500
328.73	79.8000
329.09	79.7000
329.46	80.9500
329.83	78.9500
330.19	79.3500
330.56	79.2000
330.92	80.2000
331.29	79.9500
331.65	80.5000
332.02	79.6000
332.38	80.3000
332.75	78.9500
333.11	79.2500
333.48	80.2500
333.84	80.3000
334.21	80.1000
334.58	80.0000
334.94	80.3000
335.31	80.0500
335.67	79.3500
336.04	79.8000
336.40	78.8500
336.77	80.7500
337.13	79.7000
337.50	80.7500
337.86	80.2500
338.22	80.7500
338.59	80.5000
338.95	80.8500
339.32	80.9000
339.68	80.4000
340.05	80.7000
340.41	81.4000
340.78	81.0500
341.14	79.9500
341.51	80.6500
341.87	79.9000
342.24	79.7500
342.60	80.8000
342.96	80.6000
343.33	80.2500
343.69	80.2500
344.06	79.7500
344.42	80.5500
344.79	79.3000
345.15	80.0500
345.51	81.1000
345.88	81.0500
346.24	80.3000
346.61	80.3000
346.97	81.4000
347.34	81.6500
347.70	81.1500
348.06	80.4500
348.43	78.9500
348.79	79.9000
349.16	80.5000
349.52	80.0000
349.88	80.9500
350.25	81.2500
350.61	80.9000
350.97	80.0500
351.34	81.2500
351.70	81.5000
352.07	81.3000
352.43	80.8500
352.79	81.7000
353.16	81.3500
353.52	80.2500
353.88	80.6000
354.25	80.8000
354.61	80.3500
354.97	81.2000
355.34	80.5500
355.70	81.2000
356.06	80.9000
356.43	80.4000
356.79	82.0500
357.15	81.1500
357.52	81.9500
357.88	81.6000
358.24	80.6000
358.60	81.5000
358.97	81.1500
359.33	81.6000
359.69	81.5500
360.06	82.7000
360.42	82.3000
360.78	82.7500
361.14	81.3000
361.51	81.4500
361.87	82.1500
362.23	82.6500
362.60	80.6500
362.96	82.1000
363.32	81.4500
363.68	81.7500
364.05	82.3500
364.41	81.7500
364.77	82.3500
365.13	81.2000
365.50	82.7500
365.86	81.9000
366.22	81.7000
366.58	81.4500
366.95	81.3500
367.31	81.9500
367.67	82.7500
368.03	81.8500
368.39	83.1500
368.76	83.1500
369.12	82.0500
369.48	84.1000
369.84	83.9500
370.20	82.0500
370.57	83.3000
370.93	82.9500
371.29	83.6000
371.65	83.6000
372.01	83.4000
372.38	84.0000
372.74	83.6000
373.10	83.8000
373.46	84.3500
373.82	83.8000
374.18	84.5000
374.55	84.7000
374.91	84.2500
375.27	84.5500
375.63	85.1000
375.99	84.7000
376.35	84.2500
376.71	84.7000
377.08	86.1000
377.44	85.9000
377.80	86.9000
378.16	86.9500
378.52	87.2000
378.88	86.2000
379.24	88.1000
379.60	89.2500
379.97	89.0500
380.33	89.3000
380.69	88.8000
381.05	91.1000
381.41	92.8000
381.77	92.8500
382.13	92.0000
382.49	94.5000
382.85	94.4000
383.21	96.1500
383.57	96.9000
383.94	98.5000
384.30	99.9500
384.66	99.7000
385.02	101.7000
385.38	103.1500
385.74	104.7500
386.10	105.0500
386.46	107.8000
386.82	107.5500
387.18	108.9000
387.54	109.4500
387.90	108.9000
388.26	113.1500
388.62	115.4500
388.98	113.7500
389.34	115.4500
389.70	116.5500
390.06	113.9500
390.42	117.3500
390.78	121.6000
391.14	123.9500
391.50	122.9000
391.86	125.9000
392.22	127.1500
392.58	126.9000
392.94	124.9000
393.30	127.6500
393.66	129.1500
394.02	130.5000
394.38	127.1000
394.74	132.3000
395.10	132.4000
395.46	137.4000
395.82	135.4500
396.18	134.0000
396.54	140.4500
396.90	143.7500
397.26	142.3000
397.62	140.8000
397.98	147.8500
398.34	143.5500
398.70	145.0000
399.05	141.7500
399.41	143.5500
399.77	147.8500
400.13	149.5500
400.49	153.1000
400.85	156.3500
401.21	151.1000
401.57	160.0500
401.93	157.6000
402.29	156.8000
402.65	158.4500
403.00	163.9500
403.36	167.6500
403.72	163.6500
404.08	175.5000
404.44	165.4500
404.80	168.4000
405.16	174.3000
405.52	180.0000
405.87	181.7500
406.23	183.9500
406.59	173.3000
406.95	177.3500
407.31	182.1500
407.67	182.6500
408.03	181.9500
408.38	190.3000
408.74	200.0500
409.10	199.6000
409.46	191.1000
409.82	199.9500
410.17	196.5500
410.53	193.0500
410.89	199.8000
411.25	187.4500
411.61	197.2000
411.97	206.8500
412.32	203.9000
412.68	210.5000
413.04	208.1500
413.40	191.4000
413.75	205.1000
414.11	210.7500
414.47	207.9500
414.83	224.2500
415.19	217.9500
415.54	208.2000
415.90	220.7500
416.26	218.5500
416.62	225.3500
416.97	214.0000
417.33	228.7000
417.69	233.0500
418.05	228.3000
418.40	218.3000
418.76	228.9000
419.12	244.2000
419.48	238.5000
419.83	251.8500
420.19	228.8500
420.55	234.3000
420.90	255.8500
421.26	244.4500
421.62	240.2500
421.98	255.6000
422.33	265.3000
422.69	269.7000
423.05	272.2500
423.40	247.8500
423.76	242.8500
424.12	267.0500
424.47	265.8500
424.83	266.2500
425.19	265.4500
425.54	266.3000
425.90	277.9500
426.26	288.0500
426.61	290.5500
426.97	250.5500
427.33	285.4000
427.68	281.9500
428.04	304.5000
428.40	317.4500
428.75	323.8500
429.11	295.8000
429.47	327.5500
429.82	323.5000
430.18	319.6000
430.53	309.6500
430.89	314.9500
431.25	320.9000
431.60	330.7500
431.96	324.8000
432.31	318.6500
432.67	342.2500
433.03	350.4000
433.38	336.7500
433.74	348.5500
434.09	344.7000
434.45	336.7000
434.81	329.2500
435.16	355.3500
435.52	332.9500
435.87	325.3500
436.23	332.3000
436.58	339.6500
436.94	355.4500
437.30	359.7500
437.65	377.6500
438.01	365.9000
438.36	368.3500
438.72	367.7500
439.07	358.8000
439.43	365.9500
439.78	390.6500
440.14	408.2000
440.49	376.5500
440.85	381.9000
441.20	399.0500
441.56	394.2000
441.91	423.4500
442.27	391.8000
442.62	396.7500
442.98	409.8500
443.33	399.2500
443.69	407.4000
444.04	401.5500
444.40	386.9500
444.75	426.2500
445.11	432.9500
445.46	443.3500
445.82	441.6500
446.17	414.1000
446.53	441.9000
446.88	486.1500
447.23	411.5000
447.59	415.7500
447.94	416.2000
448.30	447.6000
448.65	435.2500
449.01	463.6500
449.36	463.9000
449.72	496.2500
450.07	513.9500
450.42	501.0500
450.78	478.3000
451.13	498.8000
451.49	479.8500
451.84	469.7000
452.19	475.3500
452.55	500.1000
452.90	506.0000
453.26	537.1000
453.61	555.9500
453.96	472.8000
454.32	527.5000
454.67	528.2500
455.02	494.7000
455.38	516.4000
455.73	514.3000
456.09	562.1500
456.44	561.6500
456.79	550.6000
457.15	551.7500
457.50	531.5000
457.85	545.4500
458.21	541.6000
458.56	568.7500
458.91	559.0500
459.27	526.3000
459.62	550.0500
459.97	560.5500
460.32	578.9000
460.68	579.1500
461.03	572.7000
461.38	584.2000
461.74	646.2000
462.09	625.7000
462.44	597.0000
462.80	591.2000
463.15	600.8000
463.50	600.3500
463.85	645.7500
464.21	623.4500
464.56	653.7500
464.91	610.7500
465.26	632.1000
465.62	636.0000
465.97	681.9000
466.32	675.8000
466.67	676.2000
467.03	675.2500
467.38	692.3500
467.73	702.1500
468.08	720.5500
468.44	729.0500
468.79	728.5000
469.14	693.1000
469.49	732.8000
469.85	750.0500
470.20	821.7000
470.55	821.7000
470.90	825.1500
471.25	786.3000
471.61	815.1000
471.96	817.9000
472.31	842.2000
472.66	849.6500
473.01	876.1500
473.36	899.8500
473.72	886.2000
474.07	917.2000
474.42	919.7500
474.77	927.1000
475.12	952.0500
475.47	980.8500
475.83	986.3000
476.18	986.9000
476.53	975.5000
476.88	1029.6500
477.23	1041.4500
477.58	1036.1500
477.93	1059.2000
478.28	1053.6000
478.64	1075.5000
478.99	1100.9500
479.34	1117.0000
479.69	1135.5000
480.04	1167.7500
480.39	1172.7500
480.74	1154.1000
481.09	1223.9500
481.44	1227.1500
481.79	1217.5500
482.15	1233.7000
482.50	1258.1000
482.85	1260.5500
483.20	1306.3500
483.55	1306.1500
483.90	1333.1000
484.25	1324.6000
484.60	1321.0000
484.95	1357.0000
485.30	1368.1500
485.65	1385.9000
486.00	1398.5500
486.35	1382.4000
486.70	1397.4000
487.05	1451.9000
487.40	1453.8500
487.75	1463.3500
488.10	1478.1000
488.45	1471.8500
488.80	1482.8500
489.15	1520.1000
489.50	1526.2500
489.85	1535.1500
490.20	1533.2500
490.55	1561.5000
490.90	1573.6500
491.25	1581.2000
491.60	1573.8000
491.95	1578.7000
492.30	1600.1000
492.65	1618.1500
493.00	1615.3500
493.35	1621.9500
493.70	1638.4000
494.05	1650.0000
494.40	1678.5000
494.75	1680.7500
495.10	1677.0500
495.45	1685.9500
495.80	1700.3500
496.15	1716.3000
496.50	1704.7000
496.84	1707.6000
497.19	1717.5500
497.54	1741.4500
497.89	1746.8500
498.24	1745.1000
498.59	1771.8000
498.94	1759.6500
499.29	1771.8500
499.64	1778.4000
499.99	1793.0000
500.33	1801.8500
500.68	1810.3000
501.03	1817.4500
501.38	1821.6500
501.73	1846.7500
502.08	1837.6000
502.43	1864.2500
502.77	1872.4500
503.12	1877.2000
503.47	1882.9000
503.82	1901.3500
504.17	1916.1500
504.52	1928.3500
504.86	1932.0500
505.21	1961.7000
505.56	1956.0500
505.91	1963.7000
506.26	1968.5000
506.61	1990.7500
506.95	1994.6000
507.30	2007.9500
507.65	2031.6500
508.00	2028.8500
508.35	2035.1000
508.69	2044.9000
509.04	2067.5000
509.39	2061.5000
509.74	2067.8000
510.08	2078.0000
510.43	2104.3501
510.78	2107.2500
511.13	2117.8000
511.47	2134.9500
511.82	2147.5000
512.17	2146.3501
512.52	2171.6499
512.86	2186.8999
513.21	2198.7000
513.56	2200.7500
513.91	2234.1499
514.25	2231.0000
514.60	2246.4500
514.95	2253.6499
515.30	2260.5500
515.64	2262.3999
515.99	2301.7500
516.34	2301.3000
516.68	2320.2000
517.03	2330.7000
517.38	2335.6499
517.72	2370.7500
518.07	2363.1001
518.42	2366.5000
518.76	2402.7000
519.11	2402.5000
519.46	2432.7000
519.80	2420.8501
520.15	2428.8999
520.50	2455.1499
520.84	2454.2500
521.19	2465.2500
521.54	2479.6499
521.88	2469.8000
522.23	2506.6001
522.58	2495.5000
522.92	2513.6001
523.27	2524.8000
523.61	2528.3501
523.96	2534.1001
524.31	2573.4500
524.65	2579.7000
525.00	2573.8501
525.34	2547.9500
525.69	2565.3000
526.04	2594.5500
526.38	2607.8999
526.73	2611.8501
527.07	2634.1001
527.42	2624.3501
527.76	2649.6001
528.11	2662.8999
528.46	2649.3000
528.80	2654.8000
529.15	2640.8000
529.49	2646.7000
529.84	2662.2000
530.18	2679.7500
530.53	2698.1499
530.87	2687.7500
531.22	2684.0000
531.56	2689.1499
531.91	2704.8501
532.25	2699.3000
532.60	2701.3999
532.94	2720.1001
533.29	2705.8000
533.63	2698.9500
533.98	2700.5000
534.32	2720.9500
534.67	2758.3501
535.01	2767.2500
535.36	2748.2500
535.70	2778.2500
536.05	2781.3501
536.39	2795.3000
536.74	2762.5000
537.08	2757.6499
537.43	2753.8501
537.77	2782.8000
538.12	2812.2500
538.46	2810.5000
538.80	2825.5500
539.15	2799.9500
539.49	2820.6499
539.84	2848.6499
540.18	2846.6001
540.53	2839.7500
540.87	2836.5500
541.21	2865.5500
541.56	2864.0500
541.90	2874.1499
542.25	2863.4500
542.59	2860.3000
542.93	2898.6499
543.28	2879.9500
543.62	2896.6499
543.97	2895.3000
544.31	2911.3000
544.65	2915.7000
545.00	2930.7000
545.34	2938.6499
545.68	2936.8501
546.03	2931.0000
546.37	2962.9500
546.71	2965.3501
547.06	2968.8000
547.40	2972.0500
547.74	3009.0000
548.09	2990.4500
548.43	2999.0500
548.77	3003.8000
549.12	3002.5000
549.46	3000.2000
549.80	3027.0000
550.15	3048.3000
550.49	3046.2500
550.83	3046.8999
551.17	3058.4500
551.52	3058.2500
551.86	3067.2000
552.20	3074.3501
552.55	3098.2000
552.89	3096.4500
553.23	3108.8999
553.57	3125.0500
553.92	3117.4500
554.26	3139.1001
554.60	3122.4500
554.94	3138.2000
555.29	3156.1499
555.63	3164.7500
555.97	3178.6499
556.31	3179.8501
556.66	3184.0000
557.00	3179.3501
557.34	3200.2500
557.68	3218.5500
558.02	3220.8999
558.37	3231.1001
558.71	3230.0000
559.05	3233.5000
559.39	3249.3000
559.73	3266.3501
560.08	3257.4500
560.42	3278.4500
560.76	3267.5000
561.10	3275.1001
561.44	3275.5500
561.78	3301.3000
562.13	3313.6499
562.47	3291.2500
562.81	3318.8999
563.15	3323.3000
563.49	3326.8000
563.83	3351.0500
564.17	3344.1001
564.52	3342.6001
564.86	3363.1499
565.20	3358.8000
565.54	3359.0500
565.88	3362.3501
566.22	3375.1499
566.56	3361.6499
566.90	3389.7500
567.24	3389.8501
567.59	3381.7500
567.93	3392.8501
568.27	3408.6001
568.61	3422.2000
568.95	3400.3999
569.29	3401.7500
569.63	3443.5000
569.97	3429.3000
570.31	3380.3000
570.65	3409.8501
570.99	3426.8000
571.33	3438.6001
571.67	3415.7500
572.01	3422.0000
572.35	3446.8501
572.69	3455.1499
573.03	3458.3000
573.37	3454.3000
573.71	3441.3501
574.05	3419.4500
574.39	3431.6001
574.73	3456.5500
575.07	3436.1499
575.41	3445.3999
575.75	3462.3501
576.09	3489.3000
576.43	3471.8000
576.77	3469.3000
577.11	3445.8000
577.45	3463.8000
577.79	3450.0000
578.13	3471.6001
578.47	3437.7500
578.81	3442.4500
579.15	3450.0500
579.49	3491.5500
579.83	3484.6001
580.17	3489.7500
580.51	3479.3000
580.85	3487.2000
581.19	3485.6001
581.53	3464.8999
581.87	3468.8999
582.20	3484.9500
582.54	3477.2500
582.88	3477.6499
583.22	3461.1499
583.56	3446.5000
583.90	3491.3999
584.24	3484.7000
584.58	3483.7000
584.92	3502.5500
585.25	3503.9500
585.59	3486.7000
585.93	3502.0500
586.27	3518.2000
586.61	3473.5500
586.95	3503.0500
587.29	3513.7000
587.62	3493.2500
587.96	3505.5000
588.30	3515.7500
588.64	3501.1499
588.98	3500.3999
589.31	3516.5500
589.65	3505.8999
589.99	3479.9500
590.33	3518.6499
590.67	3525.2000
591.01	3529.2000
591.34	3533.2000
591.68	3527.2500
592.02	3540.7000
592.36	3530.2500
592.69	3535.1001
593.03	3530.2000
593.37	3540.6001
593.71	3539.5500
594.04	3538.0000
594.38	3533.0500
594.72	3558.8999
595.06	3542.0000
595.39	3541.7000
595.73	3561.0000
